time (sec), voltage (V)
0.050, -0.79
0.050, -0.77
0.052, -0.33
0.052, -0.16
0.249, -0.79
0.252, -0.31
0.353, -0.54
0.355, -1.01
0.555, -0.94
0.556, -1.14
0.649, -0.82
0.651, -0.57
0.751, -0.22
0.756, -1.11
0.849, -0.84
0.852, -0.36
0.951, -0.27
0.952, -0.46
0.953, -0.68
0.955, -0.98
1.051, -0.63
1.053, -0.12
1.155, -1.09
1.155, -1.09
1.249, -0.78
1.251, -0.71
1.252, -0.27
1.252, -0.23
1.351, -0.19
1.354, -0.80
1.449, -0.81
1.452, -0.37
1.552, -0.25
1.554, -0.71
1.554, -0.83
1.556, -1.17
1.650, -0.77
1.653, -0.13
1.753, -0.64
1.755, -1.06
1.851, -0.57
1.853, -0.12
1.951, -0.23
1.952, -0.49
1.955, -0.94
1.956, -1.14
2.050, -0.57
2.052, -0.20
2.152, -0.36
2.153, -0.74
2.155, -1.02
2.156, -1.14
2.250, -0.77
2.252, -0.23
2.451, -0.54
2.452, -0.29
2.554, -0.74
2.555, -0.94
2.649, -0.84
2.652, -0.33
2.751, -0.23
2.752, -0.48
2.753, -0.62
2.755, -1.02
2.849, -0.79
2.851, -0.53
2.951, -0.19
2.954, -0.67
3.050, -0.55
3.052, -0.29
3.153, -0.66
3.155, -1.00
3.252, -0.30
3.252, -0.14
3.351, -0.23
3.353, -0.74
3.449, -0.76
3.452, -0.16
3.552, -0.22
3.552, -0.34
3.649, -0.81
3.653, -0.11
3.752, -0.45
3.754, -0.89
3.754, -0.98
3.755, -1.09
3.851, -0.35
3.853, -0.09
3.872, 3.76
3.944, 1.29
3.952, -0.61
3.954, -0.77
4.052, -0.34
4.052, -0.17
4.057, 0.76
4.145, 1.04
4.250, -0.50
4.252, -0.34
4.258, 0.94
4.346, 0.83
4.351, -0.19
4.356, -1.11
4.458, 0.96
4.546, 0.91
4.551, -0.20
4.553, -0.65
4.554, -1.04
4.554, -1.05
4.650, -0.60
4.651, -0.34
4.658, 0.99
4.745, 0.97
4.751, -0.22
4.756, -1.12
4.850, -0.77
4.850, -0.72
4.858, 1.01
4.945, 1.00
4.953, -0.61
4.956, -1.13
5.050, -0.58
5.052, -0.28
5.058, 0.93
5.145, 1.00
5.151, -0.26
5.156, -1.11
5.258, 0.93
5.346, 0.93
5.351, -0.21
5.352, -0.46
5.458, 0.89
5.546, 0.89
5.554, -0.83
5.555, -1.04
5.650, -0.63
5.652, -0.27
5.658, 0.93
5.746, 0.81
5.752, -0.50
5.755, -1.01
5.858, 0.89
5.946, 0.80
5.952, -0.48
5.954, -0.86
6.051, -0.48
6.053, -0.09
6.057, 0.80
6.146, 0.80
6.151, -0.19
6.152, -0.46
6.252, -0.33
6.253, -0.10
6.257, 0.86
6.346, 0.77
6.352, -0.44
6.354, -0.87
6.449, -0.77
6.451, -0.36
6.458, 0.87
6.546, 0.88
6.552, -0.47
6.555, -1.00
6.649, -0.75
6.653, -0.11
6.658, 0.92
6.746, 0.88
6.754, -0.79
6.754, -1.08
6.852, -0.32
6.853, -0.10
6.858, 0.88
6.946, 0.81
6.951, -0.20
6.952, -0.50
7.057, 0.82
7.146, 0.84
7.151, -0.26
7.152, -0.45
7.153, -0.74
7.156, -1.08
7.251, -0.46
7.251, -0.36
7.257, 0.79
7.346, 0.89
7.354, -0.98
7.354, -1.04
7.450, -0.53
7.452, -0.30
7.457, 0.81
7.546, 0.79
7.552, -0.35
7.555, -1.04
7.650, -0.56
7.652, -0.21
7.657, 0.84
7.746, 0.83
7.753, -0.81
7.753, -0.82
7.858, 0.87
7.946, 0.80
7.953, -0.53
7.954, -0.88
8.052, -0.27
8.052, -0.13
8.057, 0.83
8.146, 0.84
8.151, -0.18
8.154, -0.88
8.155, -0.96
8.156, -1.10
8.250, -0.58
8.252, -0.29
8.257, 0.82
8.346, 0.78
8.354, -1.01
8.354, -1.07
8.457, 0.80
8.546, 0.80
8.554, -0.82
8.555, -1.09
8.650, -0.47
8.652, -0.20
8.657, 0.81
8.746, 0.85
8.857, 0.82
8.946, 0.81
8.952, -0.30
8.952, -0.60
9.051, -0.54
9.052, -0.34
9.057, 0.81
9.146, 0.76
9.155, -0.96
9.156, -1.11
9.257, 0.78
9.346, 0.80
9.449, -0.75
9.452, -0.41
9.457, 0.84
9.546, 0.83
9.552, -0.44
9.554, -0.86
9.650, -0.57
9.653, -0.09
9.657, 0.78
9.746, 0.78
9.751, -0.19
9.753, -0.79
9.755, -0.94
9.756, -1.09
9.849, -0.81
9.853, -0.10
9.857, 0.83
9.946, 0.77
9.952, -0.47
9.956, -1.10
10.052, -0.27
10.053, -0.09
10.057, 0.83
10.146, 0.82
10.154, -0.91
10.154, -1.02
10.257, 0.76
10.346, 0.76
10.354, -0.91
10.356, -1.10
10.457, 0.83
10.546, 0.77
10.552, -0.33
10.554, -0.81
10.657, 0.81
10.746, 0.88
10.751, -0.18
10.752, -0.50
10.849, -0.79
10.850, -0.65
10.857, 0.84
10.946, 0.88
10.951, -0.27
10.954, -0.90
10.955, -0.99
10.956, -1.09
11.058, 0.89
11.146, 0.88
11.153, -0.54
11.154, -0.85
11.154, -0.92
11.156, -1.11
11.257, 0.80
11.346, 0.86
11.352, -0.38
11.352, -0.40
11.353, -0.85
11.355, -1.03
11.457, 0.78
11.546, 0.85
11.552, -0.51
11.554, -0.99
11.657, 0.82
11.746, 0.89
11.751, -0.20
11.753, -0.77
11.857, 0.81
11.946, 0.84
11.952, -0.41
11.954, -1.03
12.051, -0.46
12.051, -0.32
12.057, 0.81
12.146, 0.80
12.152, -0.45
12.155, -0.97
12.251, -0.36
12.252, -0.11
12.257, 0.80
12.346, 0.78
12.351, -0.23
12.353, -0.71
12.452, -0.30
12.453, -0.09
12.457, 0.80
12.546, 0.87
12.552, -0.42
12.556, -1.10
12.658, 0.91
12.746, 0.82
12.752, -0.54
12.753, -0.74
12.755, -0.89
12.756, -1.12
12.857, 0.81
12.946, 0.85
12.952, -0.38
12.954, -0.85
13.058, 0.86
13.146, 0.85
13.151, -0.20
13.152, -0.46
13.154, -0.93
13.156, -1.12
13.250, -0.62
13.252, -0.32
13.257, 0.83
13.346, 0.78
13.351, -0.18
13.352, -0.43
13.355, -0.95
13.356, -1.12
13.457, 0.79
13.546, 0.77
13.555, -0.97
13.556, -1.11
13.658, 0.87
13.746, 0.84
13.753, -0.78
13.754, -1.08
13.850, -0.58
13.853, -0.07
13.857, 0.85
13.946, 0.78
13.951, -0.18
13.956, -1.11
14.057, 0.79
14.146, 0.86
14.155, -0.95
14.155, -0.96
14.252, -0.29
14.253, -0.07
14.257, 0.80
14.346, 0.77
14.352, -0.45
14.354, -0.88
14.355, -0.97
14.356, -1.08
14.457, 0.74
14.546, 0.81
14.552, -0.45
14.554, -0.98
14.652, -0.32
14.653, -0.11
14.657, 0.86
14.746, 0.83
14.852, -0.28
14.853, -0.11
14.857, 0.84
14.946, 0.81
14.954, -0.98
14.955, -1.05
15.050, -0.60
15.052, -0.37
15.057, 0.86
15.146, 0.79
15.155, -0.91
15.156, -1.08
15.257, 0.83
15.346, 0.85
15.354, -0.77
15.355, -1.07
15.450, -0.61
15.452, -0.37
15.457, 0.82
15.546, 0.78
15.552, -0.35
15.552, -0.40
15.657, 0.82
15.746, 0.88
15.751, -0.18
15.756, -1.12
15.852, -0.22
15.852, -0.10
15.857, 0.84
15.946, 0.84
15.954, -0.84
15.954, -0.89
16.057, 0.85
16.146, 0.84
16.250, -0.62
16.252, -0.35
16.257, 0.83
16.346, 0.89
16.353, -0.83
16.355, -1.09
16.457, 0.85
16.546, 0.77
16.658, 0.87
16.746, 0.82
16.751, -0.20
16.754, -0.73
16.754, -0.87
16.756, -1.12
16.857, 0.85
16.946, 0.83
16.953, -0.60
16.954, -1.08
17.052, -0.30
17.052, -0.19
17.057, 0.79
17.146, 0.85
17.154, -0.84
17.156, -1.11
17.250, -0.54
17.251, -0.37
17.258, 0.86
17.346, 0.82
17.451, -0.45
17.453, -0.07
17.457, 0.80
17.546, 0.81
17.650, -0.54
17.653, -0.11
17.657, 0.85
17.746, 0.83
17.752, -0.44
17.754, -0.80
17.857, 0.82
17.946, 0.83
17.951, -0.23
17.952, -0.45
17.954, -0.81
17.954, -0.95
18.058, 0.94
18.146, 0.89
18.151, -0.18
18.153, -0.81
18.155, -1.01
18.156, -1.08
18.250, -0.52
18.252, -0.17
18.258, 0.91
18.346, 0.88
18.353, -0.47
18.356, -1.09
18.450, -0.59
18.452, -0.30
18.457, 0.85
18.546, 0.92
18.551, -0.19
18.555, -1.07
18.652, -0.44
18.653, -0.11
18.657, 0.83
18.746, 0.77
18.753, -0.67
18.755, -1.03
18.851, -0.35
18.853, -0.07
18.858, 0.87
18.946, 0.87
18.953, -0.74
18.956, -1.12
19.052, -0.39
19.053, -0.10
19.058, 0.92
19.146, 0.87
19.250, -0.55
19.252, -0.32
19.257, 0.82
19.346, 0.82
19.355, -1.01
19.356, -1.14
19.458, 0.86
19.546, 0.87
19.552, -0.38
19.553, -0.73
19.555, -1.01
19.556, -1.11
19.657, 0.86
19.746, 0.89
19.751, -0.23
19.752, -0.44
19.753, -0.67
19.755, -0.96
19.857, 0.85
19.946, 0.89
19.951, -0.22
19.953, -0.55
19.953, -0.74
19.955, -1.02
20.052, -0.39
20.053, -0.13
20.058, 0.86
20.146, 0.87
20.151, -0.24
20.153, -0.78
20.257, 0.86
20.346, 0.84
20.352, -0.35
20.354, -0.89
20.450, -0.50
20.451, -0.32
20.457, 0.86
20.546, 0.83
20.652, -0.28
20.652, -0.21
20.658, 0.88
20.746, 0.88
20.754, -0.87
20.754, -0.89
20.850, -0.55
20.852, -0.17
20.857, 0.83
20.946, 0.84
20.951, -0.25
20.956, -1.12
21.050, -0.52
21.052, -0.28
21.057, 0.84
21.146, 0.92
21.250, -0.55
21.252, -0.30
21.258, 0.96
21.346, 0.90
21.351, -0.26
21.355, -0.95
21.450, -0.64
21.452, -0.27
21.458, 0.87
21.546, 0.88
21.552, -0.27
21.552, -0.45
21.553, -0.75
21.554, -1.05
21.650, -0.60
21.651, -0.31
21.657, 0.86
21.746, 0.87
21.752, -0.46
21.755, -1.01
21.852, -0.37
21.853, -0.10
21.857, 0.85
21.946, 0.80
21.951, -0.22
21.952, -0.45
21.955, -1.01
21.955, -1.06
22.050, -0.61
22.052, -0.14
22.058, 0.87
22.146, 0.83
22.151, -0.21
22.152, -0.46
22.154, -0.71
22.154, -0.74
22.250, -0.63
22.253, -0.14
22.257, 0.86
22.346, 0.84
22.352, -0.49
22.353, -0.75
22.450, -0.56
22.451, -0.34
22.457, 0.84
22.546, 0.87
22.552, -0.36
22.552, -0.41
22.650, -0.52
22.652, -0.32
22.657, 0.86
22.746, 0.88
22.753, -0.55
22.755, -0.99
22.857, 0.86
22.946, 0.90
22.954, -0.69
22.956, -1.08
23.058, 0.88
23.146, 0.81
23.151, -0.26
23.155, -1.08
23.251, -0.55
23.251, -0.50
23.257, 0.86
23.346, 0.83
23.354, -0.71
23.354, -0.76
23.458, 0.88
23.546, 0.86
23.554, -0.74
23.554, -0.78
23.657, 0.86
23.746, 0.83
23.751, -0.21
23.752, -0.49
23.850, -0.51
23.852, -0.30
23.858, 0.92
23.946, 0.82
23.955, -1.05
23.955, -1.06
24.052, -0.25
24.052, -0.19
24.058, 0.96
24.146, 0.87
24.152, -0.27
24.152, -0.40
24.155, -0.94
24.156, -1.11
24.251, -0.40
24.251, -0.40
24.258, 0.89
24.346, 0.84
24.351, -0.20
24.352, -0.57
24.458, 0.87
24.546, 0.78
24.551, -0.19
24.552, -0.54
24.553, -0.78
24.556, -1.10
24.650, -0.54
24.652, -0.32
24.657, 0.84
24.746, 0.83
24.754, -0.72
24.754, -0.85
24.858, 0.89
24.946, 0.87
24.952, -0.46
24.954, -0.84
25.057, 0.85
25.146, 0.91
25.151, -0.22
25.152, -0.45
25.154, -0.77
25.156, -1.13
25.250, -0.51
25.252, -0.32
25.257, 0.85
25.346, 0.85
25.353, -0.78
25.355, -1.04
25.458, 0.87
25.546, 0.80
25.553, -0.45
25.553, -0.60
25.651, -0.47
25.651, -0.36
25.658, 0.91
25.746, 0.80
25.755, -0.95
25.756, -1.14
25.858, 0.88
25.946, 0.83
25.951, -0.20
25.952, -0.42
25.953, -0.76
25.955, -1.06
26.051, -0.47
26.051, -0.44
26.057, 0.84
26.146, 0.85
26.154, -0.76
26.154, -0.82
26.257, 0.80
26.346, 0.85
26.353, -0.63
26.353, -0.74
26.451, -0.34
26.453, -0.09
26.458, 0.89
26.546, 0.85
26.552, -0.49
26.554, -0.90
26.652, -0.35
26.653, -0.16
26.657, 0.83
26.746, 0.85
26.753, -0.63
26.753, -0.71
26.850, -0.59
26.853, -0.09
26.858, 0.86
26.946, 0.81
27.057, 0.86
27.146, 0.84
27.154, -0.95
27.156, -1.13
27.250, -0.53
27.252, -0.31
27.258, 0.87
27.346, 0.87
27.458, 0.92
27.546, 0.87
27.552, -0.28
27.553, -0.83
27.555, -1.01
27.556, -1.16
27.650, -0.54
27.652, -0.29
27.657, 0.87
27.746, 0.80
27.753, -0.87
27.754, -1.14
27.850, -0.62
27.852, -0.30
27.858, 0.87
27.946, 0.84
27.951, -0.23
27.953, -0.76
27.955, -0.96
27.956, -1.09
28.058, 0.95
28.146, 0.85
28.154, -0.93
28.156, -1.15
28.251, -0.50
28.251, -0.36
28.258, 0.88
28.346, 0.76
28.355, -0.95
28.356, -1.13
28.452, -0.26
28.452, -0.19
28.458, 0.89
28.546, 0.87
28.554, -1.07
28.554, -1.10
28.658, 0.95
28.746, 0.89
28.850, -0.52
28.852, -0.33
28.858, 0.87
28.946, 0.80
28.955, -1.04
28.956, -1.15
29.052, -0.27
29.052, -0.14
29.057, 0.84
29.146, 0.88
29.153, -0.56
29.153, -0.77
29.155, -1.00
29.156, -1.13
29.250, -0.64
29.252, -0.33
29.258, 0.94
29.346, 0.90
29.351, -0.22
29.352, -0.48
29.355, -1.10
29.355, -1.19
29.450, -0.60
29.452, -0.24
29.457, 0.85
29.546, 0.78
29.552, -0.28
29.552, -0.44
29.555, -0.94
29.556, -1.11
29.657, 0.85
29.746, 0.77
29.751, -0.19
29.752, -0.47
29.850, -0.57
29.851, -0.33
29.857, 0.86
29.946, 0.80
29.954, -0.90
29.955, -1.10
30.058, 0.90
30.146, 0.77
30.151, -0.20
30.154, -0.91
30.258, 0.88
30.346, 0.81
30.352, -0.57
30.353, -0.89
30.450, -0.52
30.452, -0.33
30.458, 0.88
30.546, 0.82
30.551, -0.23
30.552, -0.47
30.650, -0.59
30.652, -0.38
30.657, 0.85
30.746, 0.76
30.751, -0.20
30.755, -0.98
30.857, 0.83
30.946, 0.87
30.951, -0.20
30.952, -0.51
30.954, -0.89
30.955, -1.09
31.050, -0.56
31.053, -0.09
31.057, 0.84
31.146, 0.79
31.152, -0.34
31.154, -0.80
31.155, -0.96
31.156, -1.15
31.258, 0.93
31.346, 0.89
31.352, -0.51
31.355, -1.05
31.450, -0.49
31.453, -0.09
31.457, 0.85
31.546, 0.84
31.555, -1.02
31.556, -1.14
31.650, -0.60
31.652, -0.26
31.658, 0.94
31.746, 0.87
31.751, -0.19
31.753, -0.77
31.755, -1.05
31.756, -1.14
31.852, -0.26
31.852, -0.13
31.857, 0.83
31.946, 0.79
31.952, -0.28
31.953, -0.83
32.050, -0.54
32.052, -0.33
32.057, 0.83
32.146, 0.88
32.151, -0.20
32.155, -1.01
32.156, -1.15
32.156, -1.17
32.250, -0.58
32.253, -0.10
32.257, 0.82
32.346, 0.82
32.355, -1.02
32.356, -1.14
32.457, 0.85
32.546, 0.86
32.551, -0.24
32.555, -1.03
32.650, -0.58
32.652, -0.34
32.657, 0.84
32.746, 0.79
32.850, -0.50
32.853, -0.09
32.857, 0.72
32.946, 0.81
32.951, -0.20
32.954, -1.04
33.057, 0.77
33.146, 0.84
33.250, -0.61
33.252, -0.13
33.257, 0.78
33.346, 0.78
33.352, -0.37
33.353, -0.80
33.355, -1.01
33.356, -1.15
33.452, -0.38
33.452, -0.18
33.457, 0.79
33.546, 0.78
33.551, -0.19
33.553, -0.72
33.554, -0.99
33.554, -1.06
33.651, -0.39
33.653, -0.08
33.658, 0.91
33.746, 0.77
33.755, -1.00
33.756, -1.13
33.850, -0.61
33.852, -0.33
33.857, 0.74
33.946, 0.89
33.952, -0.30
33.953, -0.83
34.050, -0.52
34.052, -0.34
34.057, 0.72
34.146, 0.83
34.257, 0.86
34.346, 0.91
34.353, -0.75
34.355, -1.08
34.452, -0.34
34.452, -0.19
34.457, 0.76
34.546, 0.78
34.552, -0.54
34.553, -0.80
34.555, -0.95
34.556, -1.08
34.651, -0.33
34.653, -0.12
34.658, 0.88
34.746, 0.86
34.753, -0.57
34.754, -1.01
34.857, 0.80
34.946, 0.78
34.953, -0.69
34.953, -0.87
34.955, -0.95
34.956, -1.13
35.050, -0.59
35.052, -0.28
35.057, 0.78
35.146, 0.81
35.151, -0.22
35.154, -0.85
35.155, -0.97
35.156, -1.15
35.250, -0.63
35.252, -0.27
35.258, 0.89
35.346, 0.86
35.452, -0.26
35.452, -0.23
35.457, 0.75
35.546, 0.82
35.551, -0.22
35.552, -0.42
35.553, -0.71
35.556, -1.10
35.650, -0.54
35.652, -0.33
35.657, 0.84
35.746, 0.82
35.752, -0.43
35.754, -0.77
35.852, -0.33
35.853, -0.10
35.858, 0.87
35.946, 0.77
35.951, -0.22
35.952, -0.43
35.953, -0.77
35.955, -1.10
36.050, -0.59
36.052, -0.30
36.057, 0.85
36.146, 0.81
36.151, -0.23
36.152, -0.46
36.154, -0.82
36.154, -0.98
36.251, -0.51
36.252, -0.32
36.257, 0.87
36.346, 0.85
36.352, -0.51
36.354, -0.97
36.354, -1.03
36.356, -1.12
36.457, 0.76
36.546, 0.84
36.552, -0.35
36.552, -0.35
36.555, -1.04
36.555, -1.08
36.650, -0.50
36.653, -0.13
36.657, 0.73
36.746, 0.79
36.755, -1.03
36.755, -1.08
36.850, -0.54
36.853, -0.10
36.858, 0.91
36.946, 0.80
36.951, -0.20
36.952, -0.42
36.955, -1.03
36.956, -1.15
37.057, 0.70
37.058, 0.93
37.058, 0.99
37.146, 0.83
37.152, -0.56
37.154, -0.81
37.155, -0.91
37.156, -1.11
37.257, 0.72
37.346, 0.86
37.351, -0.20
37.354, -0.83
37.355, -0.96
37.356, -1.09
37.457, 0.82
37.546, 0.76
37.551, -0.22
37.552, -0.45
37.657, 0.69
37.746, 0.81
37.751, -0.20
37.753, -0.73
37.755, -0.90
37.756, -1.12
37.857, 0.79
37.946, 0.83
37.952, -0.45
37.954, -0.84
38.050, -0.58
38.053, -0.08
38.057, 0.81
38.146, 0.79
38.152, -0.59
38.154, -1.06
38.257, 0.73
38.346, 0.84
38.352, -0.49
38.354, -0.86
38.354, -0.99
38.356, -1.13
38.457, 0.72
38.546, 0.77
38.551, -0.19
38.553, -0.55
38.657, 0.83
38.746, 0.77
38.752, -0.50
38.754, -0.83
38.850, -0.57
38.852, -0.31
38.857, 0.77
38.946, 0.80
38.954, -0.92
38.954, -1.10
39.052, -0.28
39.052, -0.15
39.057, 0.81
39.146, 0.82
39.152, -0.28
39.155, -1.13
39.251, -0.36
39.253, -0.08
39.257, 0.76
39.346, 0.83
39.354, -0.81
39.356, -1.12
39.452, -0.28
39.453, -0.11
39.457, 0.81
39.546, 0.87
39.551, -0.22
39.553, -0.52
39.555, -1.08
39.555, -1.10
39.658, 0.90
39.746, 0.77
39.753, -0.68
39.753, -0.80
39.850, -0.53
39.853, -0.09
39.857, 0.78
39.946, 0.78
40.051, -0.52
40.051, -0.41
40.057, 0.79
40.146, 0.79
40.151, -0.21
40.152, -0.58
40.250, -0.49
40.251, -0.35
40.257, 0.82
40.346, 0.78
40.351, -0.24
40.354, -0.77
40.450, -0.55
40.452, -0.32
40.457, 0.79
40.546, 0.78
40.552, -0.45
40.554, -1.05
40.650, -0.53
40.651, -0.38
40.657, 0.84
40.746, 0.83
40.850, -0.50
40.852, -0.32
40.857, 0.81
40.946, 0.81
40.954, -0.84
40.956, -1.11
41.052, -0.21
41.052, -0.20
41.057, 0.79
41.146, 0.81
41.152, -0.29
41.152, -0.45
41.154, -0.85
41.156, -1.12
41.257, 0.79
41.347, 0.71
41.451, -0.45
41.453, -0.09
41.457, 0.80
41.546, 0.80
41.552, -0.42
41.554, -0.95
41.555, -1.00
41.556, -1.10
41.650, -0.60
41.651, -0.43
41.657, 0.75
41.746, 0.81
41.850, -0.56
41.852, -0.22
41.857, 0.78
41.946, 0.86
42.052, -0.27
42.052, -0.13
42.057, 0.79
42.146, 0.76
42.152, -0.42
42.154, -1.01
42.251, -0.47
42.252, -0.27
42.257, 0.81
42.346, 0.83
42.457, 0.83
42.547, 0.75
42.657, 0.73
42.746, 0.77
42.751, -0.21
42.752, -0.46
42.755, -0.99
42.756, -1.12
42.852, -0.26
42.852, -0.13
42.858, 0.92
42.947, 0.72
42.951, -0.20
42.952, -0.45
43.052, -0.32
43.053, -0.10
43.057, 0.74
43.146, 0.76
43.252, -0.21
43.252, -0.18
43.257, 0.74
43.346, 0.86
43.352, -0.51
43.353, -0.81
43.457, 0.82
43.546, 0.79
43.552, -0.25
43.552, -0.32
43.554, -0.97
43.556, -1.12
43.651, -0.50
43.651, -0.40
43.657, 0.80
43.746, 0.78
43.751, -0.17
43.752, -0.40
43.857, 0.79
43.946, 0.77
43.953, -0.87
43.954, -0.95
44.057, 0.85
44.146, 0.78
44.151, -0.18
44.154, -1.06
44.257, 0.80
44.346, 0.80
44.354, -0.80
44.355, -0.98
44.457, 0.76
44.546, 0.78
44.554, -0.87
44.556, -1.11
44.657, 0.81
44.747, 0.74
44.752, -0.50
44.754, -0.84
44.755, -1.04
44.755, -1.06
44.857, 0.81
44.946, 0.75
44.952, -0.50
44.954, -0.98
45.057, 0.78
45.146, 0.82
45.151, -0.18
45.154, -0.80
45.155, -0.95
45.156, -1.12
45.250, -0.60
45.252, -0.33
45.257, 0.77
45.346, 0.79
45.353, -0.60
45.355, -1.08
45.452, -0.30
45.452, -0.26
45.457, 0.79
45.546, 0.78
45.551, -0.19
45.553, -0.77
45.555, -1.06
45.555, -1.07
45.650, -0.60
45.652, -0.31
45.657, 0.75
45.746, 0.84
45.754, -1.00
45.756, -1.12
45.851, -0.50
45.851, -0.32
45.857, 0.81
45.946, 0.76
46.050, -0.59
46.051, -0.44
46.057, 0.84
46.146, 0.81
46.154, -1.03
46.156, -1.12
46.252, -0.37
46.253, -0.13
46.257, 0.76
46.346, 0.86
46.351, -0.23
46.352, -0.44
46.354, -0.79
46.354, -0.93
46.457, 0.85
46.546, 0.81
46.552, -0.55
46.553, -0.86
46.555, -0.97
46.556, -1.10
46.650, -0.57
46.652, -0.27
46.657, 0.82
46.746, 0.84
46.752, -0.21
46.753, -0.57
46.755, -0.99
46.756, -1.13
46.857, 0.82
46.947, 0.72
46.951, -0.25
46.952, -0.43
47.057, 0.80
47.146, 0.85
47.152, -0.23
47.156, -1.11
47.257, 0.81
47.346, 0.81
47.353, -0.48
47.353, -0.55
47.355, -1.03
47.355, -1.07
47.452, -0.29
47.452, -0.12
47.457, 0.84
47.546, 0.77
47.553, -0.60
47.555, -1.03
47.650, -0.62
47.652, -0.25
47.657, 0.83
47.746, 0.78
47.751, -0.17
47.753, -0.84
47.850, -0.51
47.852, -0.29
47.857, 0.84
47.947, 0.72
47.954, -0.82
47.956, -1.12
48.057, 0.83
48.146, 0.86
48.151, -0.20
48.153, -0.62
48.153, -0.67
48.155, -1.07
48.252, -0.33
48.252, -0.21
48.258, 0.87
48.346, 0.80
48.352, -0.25
48.354, -0.84
48.457, 0.81
48.546, 0.79
48.551, -0.20
48.552, -0.55
48.554, -0.99
48.555, -1.05
48.650, -0.53
48.652, -0.31
48.657, 0.77
48.746, 0.78
48.852, -0.29
48.852, -0.22
48.857, 0.84
48.946, 0.80
48.951, -0.19
48.953, -0.80
48.955, -0.95
48.956, -1.11
49.050, -0.60
49.052, -0.33
49.057, 0.81
49.146, 0.77
49.153, -0.51
49.154, -1.00
49.252, -0.31
49.253, -0.13
49.257, 0.83
49.346, 0.76
49.351, -0.20
49.352, -0.42
49.354, -0.85
49.354, -0.98
49.452, -0.34
49.453, -0.12
49.457, 0.82
49.547, 0.73
49.552, -0.43
49.554, -0.81
49.652, -0.29
49.652, -0.22
49.657, 0.78
49.747, 0.75
49.751, -0.18
49.752, -0.48
49.754, -0.91
49.754, -1.04
49.850, -0.51
49.852, -0.29
49.857, 0.74
49.946, 0.82
49.952, -0.27
49.952, -0.41
50.050, -0.61
50.052, -0.22
50.057, 0.84
50.147, 0.72
50.152, -0.39
50.154, -1.05
50.250, -0.61
50.252, -0.29
50.257, 0.77
50.346, 0.77
50.352, -0.37
50.355, -0.93
50.450, -0.52
50.453, -0.10
50.457, 0.78
50.547, 0.74
50.554, -0.75
50.554, -0.85
50.650, -0.63
50.652, -0.17
50.657, 0.74
50.747, 0.72
50.850, -0.62
50.852, -0.26
50.857, 0.81
50.947, 0.72
50.951, -0.21
50.954, -1.00
51.050, -0.60
51.052, -0.26
51.057, 0.81
51.146, 0.79
51.153, -0.52
51.153, -0.66
51.257, 0.72
51.346, 0.78
51.353, -0.47
51.354, -0.94
51.457, 0.78
51.547, 0.66
51.551, -0.18
51.554, -0.74
51.657, 0.77
51.747, 0.71
51.751, -0.18
51.752, -0.41
51.755, -0.89
51.756, -1.12
51.857, 0.77
51.947, 0.72
51.952, -0.34
51.954, -0.79
51.955, -0.98
51.956, -1.10
52.057, 0.77
52.147, 0.71
52.152, -0.40
52.154, -0.81
52.251, -0.43
52.253, -0.12
52.257, 0.77
52.347, 0.71
52.353, -0.76
52.355, -1.05
52.450, -0.62
52.452, -0.29
52.457, 0.78
52.547, 0.71
52.553, -0.54
52.553, -0.67
52.555, -1.06
52.556, -1.15
52.652, -0.40
52.653, -0.09
52.657, 0.81
52.746, 0.86
52.752, -0.42
52.756, -1.13
52.851, -0.38
52.853, -0.14
52.857, 0.73
52.947, 0.72
52.954, -0.73
52.955, -1.05
53.057, 0.80
53.147, 0.71
53.151, -0.17
53.153, -0.65
53.250, -0.61
53.253, -0.13
53.257, 0.82
53.347, 0.73
53.351, -0.19
53.353, -0.75
53.452, -0.30
53.452, -0.18
53.457, 0.76
53.546, 0.78
53.650, -0.52
53.652, -0.18
53.657, 0.75
53.747, 0.71
53.752, -0.44
53.755, -1.01
53.857, 0.76
53.947, 0.64
53.951, -0.18
53.953, -0.72
54.057, 0.81
54.147, 0.62
54.151, -0.26
54.152, -0.42
54.153, -0.71
54.155, -0.98
54.257, 0.74
54.347, 0.64
54.354, -0.82
54.355, -1.00
54.452, -0.34
54.453, -0.11
54.457, 0.72
54.547, 0.68
54.552, -0.33
54.552, -0.43
54.554, -0.81
54.556, -1.13
54.650, -0.59
54.652, -0.27
54.657, 0.77
54.747, 0.72
54.752, -0.40
54.753, -0.58
54.755, -0.91
54.756, -1.12
54.847, -1.19
54.847, -1.18
54.852, -0.29
54.852, -0.12
54.857, 0.78
54.947, 0.72
54.951, -0.26
54.952, -0.49
55.057, 0.77
55.147, 0.63
55.151, -0.24
55.155, -1.05
55.257, 0.77
55.347, 0.62
55.450, -0.52
55.452, -0.28
55.457, 0.72
55.547, 0.63
55.650, -0.58
55.652, -0.33
55.657, 0.79
55.747, 0.63
55.752, -0.51
55.753, -0.80
55.852, -0.32
55.853, -0.14
55.857, 0.78
55.947, 0.66
55.951, -0.23
55.953, -0.70
55.955, -1.03
55.956, -1.08
56.057, 0.73
56.147, 0.62
56.154, -0.92
56.156, -1.12
56.250, -0.61
56.252, -0.32
56.257, 0.72
56.346, 0.86
56.346, 0.81
56.347, 0.62
56.351, -0.22
56.353, -0.76
56.457, 0.76
56.546, 0.85
56.552, -0.24
56.552, -0.33
56.554, -0.73
56.555, -1.12
56.657, 0.78
56.747, 0.71
56.751, -0.22
56.752, -0.60
56.753, -0.89
56.755, -1.06
56.857, 0.73
56.947, 0.66
56.952, -0.43
56.954, -0.96
57.047, -1.21
57.047, -1.20
57.057, 0.72
57.147, 0.59
57.151, -0.20
57.152, -0.45
57.257, 0.71
57.347, 0.58
57.457, 0.74
57.547, 0.67
57.551, -0.20
57.553, -0.86
57.652, -0.27
57.653, -0.11
57.657, 0.75
57.747, 0.62
57.754, -0.84
57.755, -1.11
57.850, -0.49
57.851, -0.34
57.857, 0.72
57.946, 0.76
57.951, -0.21
57.952, -0.43
57.953, -0.75
57.956, -1.14
58.050, -0.60
58.052, -0.30
58.057, 0.76
58.146, 0.76
58.250, -0.57
58.252, -0.19
58.257, 0.72
58.347, 0.58
58.352, -0.22
58.354, -0.81
58.355, -1.00
58.355, -1.05
58.457, 0.78
58.547, 0.72
58.551, -0.21
58.552, -0.50
58.553, -0.81
58.555, -1.09
58.657, 0.69
58.747, 0.65
58.857, 0.70
58.947, 0.60
58.951, -0.19
58.952, -0.41
58.955, -1.06
58.956, -1.13
59.052, -0.31
59.053, -0.11
59.057, 0.70
59.147, 0.60
59.250, -0.64
59.252, -0.25
59.257, 0.72
59.347, 0.75
59.457, 0.70
59.547, 0.69
59.553, -0.78
59.555, -1.05
59.650, -0.50
59.652, -0.30
59.657, 0.76
59.746, 0.76
59.751, -0.23
59.754, -0.91
59.857, 0.76
59.947, 0.74
59.951, -0.18
59.952, -0.41
59.954, -0.84
59.954, -0.99
60.057, 0.68
60.147, 0.71
60.151, -0.20
60.152, -0.35
60.251, -0.45
60.251, -0.40
60.257, 0.71
60.347, 0.66
60.352, -0.35
60.356, -1.10
60.450, -0.53
60.452, -0.29
60.457, 0.70
60.547, 0.65
60.650, -0.55
60.652, -0.27
60.656, 0.62
60.747, 0.73
60.751, -0.20
60.752, -0.38
60.755, -0.93
60.756, -1.08
60.856, 0.66
60.947, 0.66
60.951, -0.18
60.952, -0.38
61.049, -0.74
61.050, -0.60
61.057, 0.70
61.147, 0.68
61.256, 0.67
61.347, 0.71
61.351, -0.20
61.354, -1.03
61.450, -0.60
61.452, -0.26
61.457, 0.69
61.547, 0.73
61.554, -0.94
61.556, -1.12
61.650, -0.49
61.653, -0.13
61.657, 0.71
61.747, 0.67
61.751, -0.19
61.752, -0.44
61.857, 0.75
61.947, 0.74
61.951, -0.19
61.954, -1.01
62.050, -0.53
62.052, -0.32
62.057, 0.70
62.147, 0.69
62.250, -0.58
62.252, -0.23
62.257, 0.70
62.347, 0.68
62.352, -0.22
62.352, -0.34
62.354, -0.94
62.356, -1.13
62.450, -0.61
62.452, -0.33
62.456, 0.65
62.547, 0.69
62.552, -0.43
62.554, -0.81
62.555, -1.03
62.555, -1.08
62.650, -0.54
62.652, -0.14
62.656, 0.66
62.747, 0.67
62.852, -0.27
62.852, -0.26
62.857, 0.78
62.947, 0.64
62.951, -0.22
62.953, -0.74
62.953, -0.87
62.956, -1.09
63.057, 0.77
63.147, 0.69
63.257, 0.73
63.347, 0.64
63.354, -0.86
63.354, -1.07
63.449, -0.79
63.450, -0.66
63.452, -0.31
63.453, -0.12
63.457, 0.68
63.547, 0.68
63.553, -0.44
63.553, -0.57
63.650, -0.55
63.652, -0.26
63.657, 0.69
63.747, 0.70
63.751, -0.20
63.752, -0.46
63.857, 0.78
63.947, 0.71
64.057, 0.71
64.147, 0.75
64.152, -0.37
64.154, -0.77
64.257, 0.69
64.347, 0.65
64.353, -0.47
64.355, -1.00
64.450, -0.57
64.452, -0.32
64.457, 0.70
64.547, 0.70
64.554, -0.84
64.556, -1.11
64.650, -0.63
64.652, -0.33
64.656, 0.66
64.747, 0.63
64.751, -0.17
64.756, -1.15
64.857, 0.70
64.947, 0.67
65.050, -0.55
65.052, -0.17
65.057, 0.75
65.147, 0.63
65.250, -0.63
65.252, -0.23
65.257, 0.69
65.347, 0.70
65.353, -0.60
65.356, -1.15
65.452, -0.29
65.453, -0.12
65.457, 0.69
65.547, 0.70
65.553, -0.53
65.553, -0.54
65.555, -1.05
65.556, -1.14
65.651, -0.53
65.653, -0.14
65.657, 0.68
65.747, 0.70
65.752, -0.44
65.754, -0.69
65.857, 0.73
65.947, 0.65
65.952, -0.44
65.954, -0.75
66.057, 0.72
66.147, 0.72
66.151, -0.18
66.153, -0.43
66.155, -0.97
66.156, -1.12
66.250, -0.61
66.252, -0.31
66.256, 0.66
66.347, 0.66
66.352, -0.47
66.354, -1.04
66.450, -0.53
66.452, -0.18
66.456, 0.66
66.547, 0.71
66.651, -0.60
66.652, -0.39
66.656, 0.66
66.747, 0.62
66.751, -0.21
66.752, -0.46
66.849, -0.82
66.851, -0.44
66.857, 0.71
66.947, 0.65
67.057, 0.70
67.147, 0.67
67.153, -0.79
67.155, -1.07
67.257, 0.73
67.347, 0.67
67.352, -0.47
67.354, -1.05
67.451, -0.56
67.451, -0.40
67.457, 0.68
67.547, 0.70
67.551, -0.19
67.552, -0.40
67.650, -0.50
67.652, -0.14
67.657, 0.67
67.747, 0.62
67.751, -0.19
67.752, -0.39
67.754, -0.96
67.754, -1.08
67.857, 0.67
67.947, 0.73
68.050, -0.55
68.052, -0.26
68.057, 0.71
68.147, 0.73
68.152, -0.47
68.154, -0.86
68.155, -0.95
68.156, -1.08
68.257, 0.72
68.347, 0.63
68.352, -0.49
68.354, -0.89
68.457, 0.69
68.547, 0.68
68.552, -0.32
68.554, -1.10
68.650, -0.66
68.652, -0.29
68.657, 0.69
68.747, 0.72
68.751, -0.21
68.752, -0.50
68.852, -0.25
68.852, -0.12
68.857, 0.67
68.947, 0.68
68.952, -0.41
68.955, -1.09
69.052, -0.32
69.053, -0.12
69.056, 0.61
69.147, 0.60
69.152, -0.46
69.154, -0.82
69.250, -0.56
69.252, -0.26
69.256, 0.67
69.347, 0.67
69.452, -0.28
69.453, -0.11
69.457, 0.68
69.547, 0.64
69.551, -0.20
69.554, -0.75
69.657, 0.70
69.747, 0.71
69.754, -0.89
69.755, -1.08
69.850, -0.56
69.852, -0.31
69.856, 0.64
69.947, 0.71
69.952, -0.41
69.954, -0.78
69.955, -0.96
69.956, -1.12
70.051, -0.62
70.051, -0.48
70.056, 0.63
70.147, 0.61
70.152, -0.33
70.155, -1.04
70.250, -0.51
70.252, -0.17
70.257, 0.67
70.347, 0.72
70.352, -0.49
70.355, -1.11
70.457, 0.67
70.547, 0.65
70.555, -0.99
70.556, -1.11
70.650, -0.62
70.652, -0.34
70.656, 0.66
70.747, 0.66
70.752, -0.31
70.756, -1.11
70.856, 0.64
70.947, 0.62
70.952, -0.20
70.952, -0.32
70.954, -0.97
70.954, -1.05
71.051, -0.51
71.051, -0.48
71.056, 0.65
71.147, 0.64
71.154, -0.85
71.156, -1.10
71.256, 0.67
71.347, 0.61
71.352, -0.42
71.356, -1.09
71.452, -0.30
71.453, -0.09
71.456, 0.67
71.547, 0.59
71.551, -0.23
71.554, -0.76
71.650, -0.55
71.652, -0.22
71.656, 0.61
71.747, 0.68
71.752, -0.49
71.756, -1.08
71.856, 0.65
71.947, 0.67
71.952, -0.45
71.953, -0.73
71.955, -0.98
71.956, -1.12
72.050, -0.58
72.053, -0.06
72.056, 0.65
72.147, 0.60
72.155, -0.98
72.155, -1.05
72.256, 0.63
72.347, 0.61
72.352, -0.42
72.354, -0.64
72.456, 0.64
72.547, 0.68
72.552, -0.44
72.554, -1.02
72.652, -0.35
72.653, -0.14
72.657, 0.68
72.747, 0.68
72.852, -0.32
72.853, -0.12
72.856, 0.65
72.947, 0.68
72.951, -0.18
72.953, -0.43
72.954, -0.74
72.955, -1.05
73.052, -0.33
73.053, -0.08
73.056, 0.66
73.147, 0.61
73.153, -0.65
73.156, -1.11
73.252, -0.42
73.253, -0.07
73.257, 0.67
73.347, 0.62
73.352, -0.30
73.352, -0.43
73.451, -0.39
73.453, -0.12
73.456, 0.62
73.547, 0.60
73.656, 0.64
73.747, 0.67
73.754, -0.83
73.754, -1.08
73.851, -0.48
73.851, -0.46
73.856, 0.66
73.947, 0.69
74.050, -0.59
74.053, -0.13
74.056, 0.64
74.147, 0.67
74.152, -0.43
74.155, -1.04
74.250, -0.53
74.252, -0.33
74.256, 0.62
74.347, 0.68
74.456, 0.57
74.547, 0.67
74.656, 0.63
74.747, 0.62
74.752, -0.28
74.755, -1.02
74.857, 0.70
74.947, 0.59
74.954, -0.96
74.956, -1.07
75.051, -0.41
75.053, -0.13
75.056, 0.66
75.147, 0.61
75.256, 0.65
75.347, 0.59
75.355, -0.94
75.356, -1.08
75.452, -0.36
75.453, -0.14
75.456, 0.61
75.547, 0.63
75.551, -0.18
75.554, -0.65
75.656, 0.64
75.747, 0.67
75.754, -0.89
75.756, -1.08
75.850, -0.60
75.852, -0.25
75.856, 0.57
75.947, 0.67
75.953, -0.43
75.953, -0.58
75.955, -0.97
75.956, -1.10
76.056, 0.60
76.147, 0.67
76.152, -0.23
76.156, -1.10
76.252, -0.36
76.253, -0.11
76.256, 0.66
76.347, 0.58
76.351, -0.22
76.352, -0.43
76.354, -0.63
76.354, -0.85
76.452, -0.38
76.452, -0.16
76.457, 0.67
76.547, 0.62
76.552, -0.36
76.556, -1.10
76.656, 0.63
76.747, 0.68
76.751, -0.25
76.752, -0.46
76.856, 0.61
76.947, 0.66
76.953, -0.77
76.956, -1.11
77.052, -0.30
77.052, -0.20
77.057, 0.71
77.147, 0.58
77.151, -0.25
77.156, -1.10
77.256, 0.66
77.347, 0.63
77.353, -0.52
77.355, -0.98
77.456, 0.63
77.547, 0.67
77.552, -0.23
77.554, -1.05
77.656, 0.62
77.747, 0.68
77.752, -0.47
77.754, -0.75
77.856, 0.64
77.948, 0.54
77.954, -0.81
77.956, -1.09
78.050, -0.57
78.052, -0.23
78.056, 0.63
78.147, 0.61
78.151, -0.18
78.154, -0.88
78.256, 0.65
78.347, 0.60
78.352, -0.47
78.356, -1.12
78.456, 0.56
78.547, 0.65
78.650, -0.61
78.652, -0.31
78.656, 0.62
78.747, 0.58
78.751, -0.19
78.752, -0.35
78.753, -0.70
78.754, -1.01
78.856, 0.61
78.947, 0.65
78.953, -0.60
78.956, -1.18
79.051, -0.45
79.052, -0.15
79.056, 0.63
79.147, 0.63
79.152, -0.38
79.153, -0.72
79.252, -0.33
79.252, -0.22
79.256, 0.64
79.347, 0.63
79.351, -0.18
79.354, -0.89
79.456, 0.63
79.547, 0.67
79.656, 0.67
79.747, 0.60
79.752, -0.26
79.752, -0.34
79.856, 0.63
79.947, 0.59
79.952, -0.37
79.953, -0.58
79.955, -0.95
79.955, -1.00
80.052, -0.26
80.052, -0.22
80.056, 0.64
80.147, 0.58
80.151, -0.22
80.156, -1.13
80.250, -0.63
80.252, -0.33
80.256, 0.63
80.347, 0.56
80.354, -0.76
80.356, -1.14
80.450, -0.54
80.452, -0.34
80.456, 0.60
80.547, 0.59
80.552, -0.40
80.554, -0.64
80.656, 0.64
80.747, 0.68
80.752, -0.39
80.755, -1.06
80.856, 0.63
80.947, 0.59
80.951, -0.18
80.952, -0.39
81.056, 0.56
81.147, 0.58
81.152, -0.36
81.153, -0.59
81.155, -0.89
81.156, -1.13
81.256, 0.61
81.347, 0.56
81.355, -0.93
81.356, -1.07
81.456, 0.62
81.547, 0.61
81.555, -1.03
81.555, -1.14
81.656, 0.52
81.747, 0.65
81.751, -0.22
81.755, -1.18
81.850, -0.60
81.852, -0.33
81.856, 0.52
81.947, 0.57
81.952, -0.44
81.954, -0.83
82.052, -0.29
82.052, -0.14
82.056, 0.63
82.147, 0.60
82.154, -0.77
82.156, -1.15
82.250, -0.53
82.252, -0.31
82.256, 0.50
82.347, 0.59
82.352, -0.41
82.353, -0.62
82.355, -0.95
82.356, -1.09
82.451, -0.51
82.451, -0.43
82.456, 0.58
82.547, 0.58
82.552, -0.34
82.554, -0.70
82.656, 0.53
82.748, 0.55
82.751, -0.22
82.752, -0.47
82.852, -0.35
82.852, -0.20
82.856, 0.62
82.947, 0.61
82.955, -0.98
82.955, -1.04
83.052, -0.34
83.053, -0.12
83.056, 0.63
83.148, 0.55
83.152, -0.35
83.153, -0.66
83.256, 0.66
83.347, 0.63
83.352, -0.26
83.352, -0.42
83.450, -0.61
83.452, -0.30
83.456, 0.56
83.548, 0.52
83.553, -0.78
83.556, -1.16
83.656, 0.48
83.748, 0.53
83.751, -0.28
83.752, -0.46
83.856, 0.51
83.948, 0.56
84.052, -0.25
84.053, -0.11
84.056, 0.62
84.147, 0.57
84.152, -0.41
84.154, -0.84
84.256, 0.52
84.347, 0.57
84.351, -0.23
84.352, -0.46
84.456, 0.52
84.547, 0.57
84.552, -0.41
84.553, -0.63
84.651, -0.56
84.652, -0.14
84.656, 0.53
84.747, 0.67
84.752, -0.34
84.756, -1.09
84.852, -0.36
84.852, -0.14
84.856, 0.51
84.947, 0.66
84.954, -0.95
84.955, -1.03
85.051, -0.53
85.051, -0.40
85.056, 0.62
85.147, 0.61
85.151, -0.18
85.152, -0.37
85.255, 0.47
85.348, 0.55
85.351, -0.18
85.353, -0.80
85.355, -1.02
85.355, -1.04
85.452, -0.26
85.452, -0.16
85.456, 0.61
85.547, 0.66
85.553, -0.59
85.554, -0.92
85.651, -0.53
85.652, -0.31
85.656, 0.52
85.747, 0.57
85.751, -0.22
85.754, -0.75
85.755, -0.96
85.756, -1.18
85.856, 0.59
85.948, 0.51
85.951, -0.20
85.953, -0.58
86.056, 0.50
86.147, 0.57
86.252, -0.32
86.253, -0.11
86.256, 0.62
86.348, 0.52
86.351, -0.19
86.352, -0.40
86.355, -0.91
86.356, -1.10
86.451, -0.55
86.451, -0.42
86.456, 0.51
86.547, 0.56
86.650, -0.62
86.653, -0.14
86.656, 0.51
86.748, 0.55
86.752, -0.32
86.754, -0.74
86.754, -0.93
86.755, -1.07
86.850, -0.61
86.853, -0.14
86.856, 0.56
86.948, 0.55
86.952, -0.23
86.952, -0.42
86.955, -0.94
86.956, -1.08
87.056, 0.49
87.147, 0.60
87.250, -0.58
87.252, -0.31
87.256, 0.57
87.348, 0.52
87.353, -0.73
87.355, -1.01
87.452, -0.26
87.452, -0.14
87.456, 0.60
87.547, 0.58
87.554, -0.77
87.555, -1.10
87.652, -0.22
87.652, -0.22
87.656, 0.60
87.748, 0.54
87.755, -0.97
87.755, -1.07
87.856, 0.57
87.948, 0.53
87.951, -0.22
87.953, -0.73
87.955, -0.98
87.955, -1.07
88.050, -0.65
88.052, -0.24
88.056, 0.56
88.148, 0.53
88.155, -0.97
88.155, -1.08
88.256, 0.50
88.348, 0.52
88.351, -0.18
88.352, -0.38
88.355, -0.95
88.356, -1.11
88.456, 0.62
88.547, 0.66
88.551, -0.19
88.556, -1.06
88.650, -0.57
88.652, -0.28
88.656, 0.55
88.748, 0.49
88.755, -0.97
88.756, -1.11
88.850, -0.57
88.852, -0.31
88.856, 0.62
88.948, 0.54
88.951, -0.20
88.953, -0.63
88.954, -0.87
88.956, -1.10
89.050, -0.59
89.051, -0.36
89.056, 0.59
89.147, 0.58
89.250, -0.53
89.252, -0.31
89.256, 0.57
89.348, 0.54
89.352, -0.35
89.353, -0.72
89.456, 0.54
89.548, 0.54
89.553, -0.43
89.553, -0.64
89.555, -1.01
89.556, -1.13
89.656, 0.59
89.748, 0.55
89.751, -0.18
89.753, -0.56
89.755, -1.02
89.755, -1.07
89.856, 0.58
89.948, 0.55
89.953, -0.86
89.955, -1.01
90.056, 0.60
90.147, 0.58
90.153, -0.70
90.156, -1.14
90.256, 0.60
90.347, 0.59
90.355, -0.97
90.355, -1.09
90.449, -0.78
90.451, -0.47
90.451, -0.44
90.452, -0.21
90.456, 0.53
90.547, 0.59
90.656, 0.62
90.748, 0.55
90.752, -0.44
90.753, -0.61
90.856, 0.60
90.947, 0.57
90.952, -0.23
90.955, -1.06
91.049, -0.73
91.051, -0.59
91.056, 0.57
91.147, 0.56
91.151, -0.18
91.154, -0.88
91.256, 0.56
91.347, 0.58
91.351, -0.21
91.352, -0.35
91.450, -0.65
91.452, -0.27
91.456, 0.60
91.547, 0.56
91.552, -0.39
91.554, -0.92
91.554, -0.97
91.555, -1.04
91.651, -0.53
91.652, -0.21
91.656, 0.55
91.748, 0.46
91.752, -0.44
91.754, -0.95
91.754, -1.03
91.756, -1.12
91.856, 0.58
91.948, 0.51
91.952, -0.22
91.952, -0.40
91.955, -1.07
91.955, -1.12
92.050, -0.65
92.053, -0.13
92.056, 0.64
92.148, 0.56
92.151, -0.20
92.153, -0.74
92.256, 0.57
92.348, 0.55
92.353, -0.43
92.353, -0.58
92.451, -0.53
92.451, -0.41
92.456, 0.59
92.548, 0.54
92.552, -0.42
92.554, -0.79
92.656, 0.51
92.747, 0.58
92.753, -0.75
92.756, -1.11
92.852, -0.32
92.853, -0.13
92.856, 0.58
92.948, 0.54
92.952, -0.48
92.953, -0.75
92.955, -1.03
92.955, -1.08
93.056, 0.54
93.148, 0.51
93.151, -0.18
93.152, -0.53
93.153, -0.89
93.156, -1.08
93.256, 0.59
93.347, 0.60
93.352, -0.38
93.354, -0.76
93.355, -0.91
93.356, -1.12
93.451, -0.51
93.452, -0.21
93.456, 0.60
93.548, 0.55
93.551, -0.18
93.552, -0.43
93.555, -1.03
93.556, -1.15
93.650, -0.56
93.652, -0.14
93.656, 0.53
93.748, 0.52
93.752, -0.44
93.753, -0.70
93.755, -1.00
93.756, -1.12
93.851, -0.65
93.852, -0.29
93.856, 0.57
93.948, 0.52
94.056, 0.57
94.148, 0.55
94.152, -0.23
94.153, -0.56
94.250, -0.52
94.252, -0.23
94.256, 0.58
94.347, 0.57
94.353, -0.50
94.353, -0.51
94.456, 0.58
94.547, 0.57
94.553, -0.72
94.554, -1.09
94.651, -0.46
94.651, -0.35
94.656, 0.56
94.748, 0.53
94.751, -0.18
94.752, -0.39
94.754, -1.01
94.754, -1.03
94.856, 0.56
94.948, 0.51
94.951, -0.19
94.952, -0.39
94.955, -0.90
94.956, -1.11
95.056, 0.52
95.148, 0.55
95.151, -0.19
95.153, -0.45
95.250, -0.60
95.252, -0.28
95.256, 0.58
95.348, 0.51
95.352, -0.26
95.354, -1.02
95.450, -0.57
95.452, -0.22
95.456, 0.60
95.547, 0.56
95.656, 0.53
95.748, 0.53
95.752, -0.45
95.756, -1.13
95.852, -0.25
95.852, -0.14
95.856, 0.56
95.947, 0.57
95.952, -0.41
95.955, -1.00
96.056, 0.56
96.148, 0.50
96.153, -0.52
96.154, -0.76
96.256, 0.53
96.347, 0.56
96.352, -0.38
96.355, -1.09
96.452, -0.21
96.452, -0.17
96.456, 0.56
96.548, 0.54
96.551, -0.18
96.553, -0.44
96.656, 0.57
96.747, 0.56
96.752, -0.39
96.753, -0.67
96.851, -0.40
96.852, -0.13
96.856, 0.54
96.948, 0.55
96.952, -0.35
96.954, -0.80
97.056, 0.54
97.147, 0.59
97.152, -0.41
97.154, -0.77
97.155, -0.93
97.156, -1.10
97.250, -0.50
97.252, -0.30
97.256, 0.55
97.347, 0.58
97.354, -0.81
97.356, -1.13
97.452, -0.26
97.452, -0.15
97.456, 0.56
97.547, 0.57
97.552, -0.46
97.554, -0.72
97.555, -0.87
97.556, -1.11
97.651, -0.43
97.651, -0.35
97.656, 0.51
97.748, 0.55
97.751, -0.17
97.754, -0.76
97.755, -0.92
97.756, -1.11
97.851, -0.40
97.851, -0.35
97.856, 0.52
97.948, 0.48
97.951, -0.17
97.953, -0.44
97.955, -1.00
97.956, -1.11
98.056, 0.55
98.148, 0.52
98.151, -0.17
98.153, -0.41
98.155, -0.96
98.155, -1.04
98.251, -0.50
98.252, -0.23
98.256, 0.58
98.348, 0.54
98.353, -0.54
98.355, -1.06
98.451, -0.49
98.452, -0.15
98.456, 0.53
98.548, 0.50
98.651, -0.54
98.651, -0.37
98.656, 0.60
98.747, 0.58
98.753, -0.83
98.755, -1.12
98.852, -0.24
98.852, -0.16
98.856, 0.57
98.948, 0.55
98.953, -0.85
98.955, -1.06
99.056, 0.56
99.148, 0.54
99.154, -1.02
99.156, -1.10
99.256, 0.49
99.348, 0.53
99.354, -0.93
99.356, -1.12
99.456, 0.55
99.548, 0.55
99.552, -0.41
99.555, -1.09
99.651, -0.46
99.651, -0.42
99.656, 0.50
99.748, 0.46
99.752, -0.23
99.753, -0.55
99.852, -0.27
99.852, -0.13
99.856, 0.54
99.948, 0.52
99.951, -0.20
99.954, -0.89
99.955, -1.01
99.955, -1.04
100.056, 0.51
100.148, 0.50
100.151, -0.19
100.152, -0.40
100.251, -0.60
100.251, -0.54
100.256, 0.59
100.348, 0.55
100.456, 0.58
100.548, 0.53
100.656, 0.53
100.748, 0.56
100.752, -0.28
100.753, -0.62
100.856, 0.57
100.948, 0.52
100.952, -0.31
100.956, -1.11
101.056, 0.58
101.148, 0.52
101.152, -0.32
101.154, -0.71
101.155, -1.01
101.155, -1.10
101.252, -0.24
101.252, -0.16
101.256, 0.50
101.348, 0.54
101.352, -0.30
101.353, -0.69
101.354, -0.89
101.356, -1.12
101.456, 0.54
101.548, 0.49
101.656, 0.50
101.748, 0.51
101.755, -0.98
101.755, -1.09
101.850, -0.64
101.852, -0.15
101.856, 0.58
101.948, 0.51
101.951, -0.19
101.953, -0.61
102.056, 0.54
102.148, 0.54
102.250, -0.54
102.251, -0.36
102.256, 0.53
102.348, 0.52
102.352, -0.36
102.354, -0.72
102.456, 0.57
102.548, 0.51
102.553, -0.42
102.553, -0.58
102.656, 0.56
102.748, 0.53
102.850, -0.57
102.852, -0.30
102.856, 0.48
102.948, 0.48
102.953, -0.43
102.953, -0.67
103.056, 0.57
103.148, 0.52
103.252, -0.29
103.252, -0.18
103.256, 0.54
103.348, 0.52
103.351, -0.21
103.353, -0.48
103.456, 0.53
103.548, 0.48
103.554, -1.03
103.556, -1.11
103.655, 0.47
103.748, 0.45
103.856, 0.51
103.948, 0.50
104.051, -0.56
104.051, -0.45
104.056, 0.56
104.148, 0.52
104.152, -0.25
104.152, -0.39
104.154, -0.83
104.156, -1.10
104.256, 0.53
104.348, 0.49
104.351, -0.20
104.355, -1.07
104.450, -0.60
104.452, -0.30
104.456, 0.48
104.548, 0.50
104.553, -0.50
104.553, -0.66
104.656, 0.54
104.748, 0.52
104.753, -0.70
104.755, -1.04
104.856, 0.58
104.948, 0.52
104.952, -0.22
104.954, -0.79
105.052, -0.22
105.052, -0.22
105.056, 0.54
105.148, 0.51
105.155, -0.97
105.156, -1.09
105.256, 0.54
105.348, 0.47
105.353, -0.66
105.355, -1.08
105.452, -0.23
105.452, -0.18
105.456, 0.49
105.548, 0.46
105.552, -0.24
105.552, -0.37
105.555, -0.94
105.556, -1.10
105.650, -0.61
105.652, -0.31
105.656, 0.56
105.748, 0.51
105.850, -0.60
105.852, -0.31
105.856, 0.58
105.948, 0.53
105.953, -0.59
105.955, -0.94
106.056, 0.58
106.148, 0.54
106.155, -0.96
106.156, -1.11
106.256, 0.54
106.348, 0.53
106.352, -0.42
106.354, -0.93
106.456, 0.51
106.548, 0.44
106.553, -0.66
106.555, -1.05
106.650, -0.61
106.652, -0.31
106.656, 0.49
106.748, 0.51
106.752, -0.54
106.754, -1.04
106.852, -0.23
106.852, -0.14
106.856, 0.55
106.948, 0.50
106.953, -0.50
106.953, -0.55
107.050, -0.60
107.052, -0.17
107.056, 0.52
107.148, 0.51
107.256, 0.53
107.348, 0.54
107.351, -0.20
107.352, -0.45
107.353, -0.71
107.354, -0.86
107.456, 0.55
107.548, 0.45
107.656, 0.49
107.748, 0.46
107.751, -0.21
107.754, -0.84
107.856, 0.53
107.948, 0.49
107.952, -0.46
107.954, -0.87
108.056, 0.53
108.148, 0.49
108.153, -0.70
108.156, -1.10
108.256, 0.55
108.348, 0.51
108.352, -0.31
108.352, -0.31
108.355, -0.99
108.355, -1.09
108.456, 0.55
108.548, 0.52
108.552, -0.24
108.554, -1.07
108.650, -0.55
108.652, -0.32
108.656, 0.53
108.748, 0.53
108.752, -0.24
108.754, -0.78
108.856, 0.53
108.948, 0.54
108.953, -0.67
108.955, -1.07
109.051, -0.56
109.052, -0.31
109.056, 0.53
109.148, 0.51
109.152, -0.31
109.152, -0.35
109.153, -0.75
109.155, -1.05
109.256, 0.50
109.348, 0.49
109.352, -0.25
109.352, -0.30
109.456, 0.52
109.547, 0.56
109.552, -0.41
109.554, -0.90
109.656, 0.53
109.748, 0.50
109.753, -0.67
109.755, -1.05
109.850, -0.54
109.852, -0.29
109.856, 0.57
109.948, 0.53
109.952, -0.39
109.955, -0.99
110.056, 0.50
110.148, 0.50
110.151, -0.19
110.152, -0.37
110.154, -0.76
110.155, -1.06
110.256, 0.51
110.348, 0.50
110.352, -0.41
110.355, -1.04
110.456, 0.48
110.548, 0.52
110.552, -0.42
110.554, -1.05
110.656, 0.55
110.748, 0.47
110.751, -0.19
110.752, -0.46
110.754, -0.93
110.754, -0.96
110.856, 0.59
110.948, 0.47
110.951, -0.18
110.953, -0.49
111.052, -0.22
111.052, -0.18
111.056, 0.53
111.148, 0.45
111.151, -0.20
111.152, -0.44
111.153, -0.69
111.154, -1.10
111.251, -0.54
111.251, -0.39
111.256, 0.49
111.348, 0.49
111.352, -0.25
111.352, -0.38
111.354, -0.72
111.356, -1.08
111.455, 0.46
111.548, 0.49
111.553, -0.42
111.553, -0.63
111.555, -1.09
111.555, -1.15
111.650, -0.52
111.652, -0.34
111.656, 0.49
111.748, 0.48
111.852, -0.23
111.852, -0.20
111.856, 0.50
111.948, 0.49
111.952, -0.44
111.953, -0.72
112.050, -0.58
112.052, -0.32
112.056, 0.49
112.148, 0.52
112.153, -0.56
112.155, -1.06
112.256, 0.49
112.348, 0.47
112.353, -0.79
112.356, -1.14
112.450, -0.62
112.452, -0.35
112.456, 0.51
112.548, 0.51
112.553, -0.52
112.553, -0.60
112.656, 0.51
112.748, 0.49
112.850, -0.59
112.852, -0.28
112.856, 0.50
112.948, 0.50
112.954, -0.87
112.956, -1.07
113.052, -0.35
113.052, -0.17
113.055, 0.37
113.056, 0.52
113.056, 0.57
113.148, 0.48
113.152, -0.40
113.154, -1.07
113.252, -0.23
113.252, -0.15
113.255, 0.47
113.348, 0.44
113.456, 0.50
113.548, 0.45
113.552, -0.39
113.556, -1.11
113.656, 0.48
113.748, 0.46
113.752, -0.25
113.752, -0.39
113.753, -0.76
113.755, -1.09
113.856, 0.52
113.948, 0.50
114.056, 0.56
114.148, 0.51
114.153, -0.60
114.156, -1.08
114.256, 0.48
114.348, 0.50
114.354, -0.81
114.354, -1.07
114.456, 0.48
114.548, 0.47
114.551, -0.21
114.553, -0.48
114.553, -0.59
114.555, -0.96
114.650, -0.61
114.652, -0.28
114.656, 0.53
114.748, 0.45
114.751, -0.21
114.755, -1.04
114.850, -0.59
114.852, -0.29
114.856, 0.48
114.948, 0.46
114.953, -0.45
114.953, -0.60
115.055, 0.46
115.148, 0.51
115.250, -0.59
115.252, -0.36
115.255, 0.46
115.348, 0.46
115.351, -0.20
115.352, -0.42
115.353, -0.76
115.355, -1.06
115.455, 0.47
115.548, 0.50
115.651, -0.58
115.651, -0.45
115.656, 0.49
115.748, 0.44
115.752, -0.27
115.756, -1.12
115.847, -1.21
115.847, -1.18
115.856, 0.58
115.948, 0.41
115.952, -0.42
115.953, -0.62
116.050, -0.62
116.052, -0.28
116.056, 0.50
116.148, 0.44
116.153, -0.49
116.156, -1.11
116.250, -0.59
116.252, -0.38
116.255, 0.44
116.348, 0.42
116.353, -0.49
116.355, -1.06
116.450, -0.55
116.452, -0.32
116.456, 0.49
116.548, 0.40
116.551, -0.22
116.552, -0.40
116.554, -0.81
116.555, -0.96
116.655, 0.47
116.748, 0.46
116.752, -0.25
116.752, -0.40
116.855, 0.44
116.948, 0.44
116.951, -0.21
116.952, -0.47
117.055, 0.40
117.148, 0.48
117.153, -0.66
117.156, -1.09
117.250, -0.64
117.252, -0.32
117.256, 0.49
117.348, 0.42
117.355, -1.04
117.355, -1.13
117.450, -0.64
117.452, -0.23
117.455, 0.43
117.548, 0.50
117.551, -0.22
117.555, -1.04
117.655, 0.46
117.748, 0.42
117.753, -0.70
117.756, -1.12
117.850, -0.60
117.852, -0.19
117.855, 0.46
117.948, 0.41
117.951, -0.21
117.953, -0.59
117.955, -0.93
117.955, -1.04
118.050, -0.62
118.052, -0.24
118.055, 0.47
118.148, 0.48
118.256, 0.54
118.348, 0.43
118.351, -0.21
118.353, -0.59
118.354, -0.88
118.354, -1.04
118.450, -0.59
118.452, -0.24
118.455, 0.43
118.548, 0.39
118.554, -0.81
118.555, -1.07
118.656, 0.50
118.748, 0.42
118.752, -0.39
118.753, -0.63
118.852, -0.21
118.852, -0.19
118.855, 0.45
118.948, 0.42
118.955, -0.99
118.955, -1.08
119.056, 0.49
119.148, 0.48
119.154, -0.99
119.156, -1.13
119.255, 0.43
119.348, 0.40
119.352, -0.30
119.356, -1.13
119.456, 0.51
119.548, 0.39
119.553, -0.82
119.555, -0.96
119.655, 0.46
119.748, 0.44
119.753, -0.75
119.755, -0.96
119.856, 0.47
119.948, 0.37
119.952, -0.29
119.954, -0.69
119.954, -0.96
119.955, -1.14
120.056, 0.53
120.149, 0.35
120.250, -0.55
120.252, -0.26
120.255, 0.45
120.348, 0.48
120.352, -0.42
120.356, -1.09
120.455, 0.45
120.548, 0.40
120.552, -0.34
120.556, -1.10
120.649, -0.80
120.652, -0.40
120.656, 0.49
120.748, 0.50
120.751, -0.22
120.754, -0.80
120.755, -0.97
120.755, -1.07
120.850, -0.51
120.852, -0.25
120.855, 0.45
120.948, 0.42
121.050, -0.60
121.052, -0.27
121.055, 0.44
121.148, 0.42
121.152, -0.37
121.154, -1.01
121.252, -0.22
121.252, -0.19
121.255, 0.45
121.348, 0.41
121.353, -0.44
121.353, -0.58
121.455, 0.45
121.549, 0.35
121.551, -0.25
121.552, -0.41
121.555, -1.02
121.556, -1.11
121.655, 0.46
121.748, 0.36
121.753, -0.52
121.755, -1.02
121.850, -0.55
121.852, -0.23
121.856, 0.50
121.949, 0.36
121.954, -0.89
121.954, -1.04
122.050, -0.62
122.052, -0.29
122.056, 0.49
122.148, 0.46
122.154, -0.88
122.156, -1.10
122.256, 0.48
122.349, 0.34
122.353, -0.81
122.355, -1.08
122.450, -0.63
122.453, -0.13
122.455, 0.40
122.548, 0.45
122.551, -0.21
122.553, -0.45
122.553, -0.62
122.555, -1.09
122.651, -0.48
122.652, -0.28
122.655, 0.45
122.748, 0.47
122.752, -0.36
122.754, -0.64
122.755, -0.92
122.756, -1.09
122.850, -0.64
122.850, -0.59
122.856, 0.49
122.948, 0.41
122.952, -0.46
122.955, -0.96
123.049, -0.78
123.051, -0.47
123.055, 0.47
123.149, 0.35
123.152, -0.33
123.152, -0.36
123.250, -0.62
123.252, -0.34
123.255, 0.47
123.348, 0.38
123.351, -0.21
123.352, -0.38
123.456, 0.48
123.548, 0.42
123.650, -0.56
123.652, -0.31
123.656, 0.48
123.748, 0.48
123.856, 0.47
123.948, 0.47
123.952, -0.33
123.954, -0.92
123.955, -1.03
123.955, -1.04
124.052, -0.23
124.052, -0.17
124.055, 0.44
124.148, 0.48
124.151, -0.21
124.153, -0.54
124.252, -0.30
124.252, -0.23
124.256, 0.50
124.348, 0.43
124.351, -0.22
124.352, -0.44
124.354, -1.03
124.355, -1.06
124.455, 0.47
124.548, 0.39
124.553, -0.46
124.556, -1.11
124.649, -0.74
124.652, -0.19
124.655, 0.40
124.748, 0.45
124.753, -0.68
124.755, -1.04
124.856, 0.50
124.948, 0.41
124.953, -0.79
124.956, -1.11
125.050, -0.55
125.052, -0.27
125.055, 0.41
125.148, 0.39
125.152, -0.39
125.153, -0.61
125.155, -0.93
125.155, -1.07
125.250, -0.61
125.252, -0.21
125.255, 0.39
125.348, 0.47
125.351, -0.22
125.352, -0.41
125.455, 0.45
125.548, 0.51
125.552, -0.45
125.554, -0.71
125.554, -0.81
125.556, -1.11
125.650, -0.54
125.652, -0.23
125.655, 0.42
125.748, 0.43
125.850, -0.69
125.852, -0.32
125.856, 0.47
125.948, 0.40
125.952, -0.42
125.955, -1.04
126.051, -0.48
126.051, -0.34
126.055, 0.45
126.149, 0.33
126.152, -0.37
126.153, -0.62
126.250, -0.61
126.252, -0.32
126.255, 0.46
126.348, 0.41
126.352, -0.46
126.355, -1.01
126.449, -0.74
126.452, -0.30
126.455, 0.47
126.549, 0.35
126.553, -0.46
126.555, -1.04
126.655, 0.43
126.748, 0.47
126.752, -0.31
126.756, -1.11
126.850, -0.62
126.850, -0.54
126.855, 0.47
126.948, 0.36
126.952, -0.30
126.953, -0.59
127.050, -0.58
127.052, -0.24
127.055, 0.46
127.148, 0.38
127.153, -0.48
127.156, -1.10
127.251, -0.53
127.251, -0.43
127.255, 0.44
127.348, 0.40
127.353, -0.45
127.353, -0.53
127.455, 0.44
127.548, 0.40
127.655, 0.44
127.748, 0.49
127.752, -0.30
127.752, -0.39
127.755, -1.00
127.756, -1.10
127.855, 0.39
127.948, 0.43
127.952, -0.38
127.955, -1.13
128.051, -0.41
128.051, -0.32
128.056, 0.49
128.148, 0.42
128.151, -0.24
128.152, -0.43
128.155, -0.97
128.156, -1.11
128.252, -0.21
128.252, -0.20
128.255, 0.43
128.348, 0.42
128.351, -0.20
128.356, -1.13
128.449, -0.75
128.452, -0.33
128.455, 0.46
128.548, 0.49
128.650, -0.53
128.652, -0.25
128.655, 0.40
128.748, 0.47
128.753, -0.75
128.755, -1.07
128.855, 0.43
128.948, 0.45
128.952, -0.38
128.953, -0.73
128.955, -1.10
128.955, -1.10
129.050, -0.58
129.052, -0.27
129.055, 0.41
129.148, 0.50
129.152, -0.26
129.152, -0.42
129.154, -0.90
129.156, -1.10
129.255, 0.46
129.348, 0.41
129.450, -0.61
129.452, -0.24
129.456, 0.50
129.548, 0.48
129.552, -0.44
129.555, -1.07
129.655, 0.38
129.748, 0.45
129.752, -0.36
129.754, -0.72
129.855, 0.44
129.948, 0.41
129.953, -0.45
129.953, -0.57
130.056, 0.48
130.148, 0.43
130.152, -0.33
130.156, -1.09
130.255, 0.44
130.348, 0.43
130.352, -0.29
130.352, -0.40
130.353, -0.62
130.355, -1.03
130.450, -0.59
130.452, -0.34
130.455, 0.46
130.548, 0.47
130.553, -0.78
130.555, -1.04
130.655, 0.42
130.748, 0.47
130.753, -0.43
130.755, -1.07
130.855, 0.47
130.948, 0.43
130.951, -0.20
130.953, -0.65
131.055, 0.44
131.148, 0.42
131.256, 0.47
131.348, 0.48
131.352, -0.25
131.354, -0.76
131.450, -0.62
131.451, -0.38
131.455, 0.39
131.548, 0.45
131.552, -0.25
131.556, -1.11
131.655, 0.45
131.748, 0.44
131.754, -0.73
131.755, -1.05
131.855, 0.46
131.948, 0.44
131.952, -0.37
131.953, -0.62
132.050, -0.52
132.052, -0.28
132.055, 0.43
132.148, 0.40
132.152, -0.23
132.152, -0.32
132.154, -0.86
132.156, -1.09
132.255, 0.46
132.348, 0.46
132.352, -0.39
132.355, -1.08
132.451, -0.41
132.451, -0.30
132.455, 0.44
132.548, 0.51
132.553, -0.59
132.556, -1.09
132.651, -0.42
132.651, -0.36
132.655, 0.44
132.748, 0.47
132.850, -0.56
132.852, -0.29
132.855, 0.42
132.948, 0.46
133.055, 0.47
133.148, 0.41
133.155, -1.09
133.155, -1.14
133.255, 0.45
133.348, 0.39
133.352, -0.35
133.353, -0.69
133.455, 0.47
133.548, 0.40
133.552, -0.25
133.553, -0.60
133.652, -0.24
133.652, -0.13
133.655, 0.43
133.748, 0.38
133.752, -0.39
133.755, -1.08
133.850, -0.61
133.852, -0.32
133.855, 0.45
133.948, 0.39
133.952, -0.41
133.954, -0.93
134.050, -0.56
134.052, -0.30
134.055, 0.43
134.148, 0.42
134.152, -0.42
134.156, -1.09
134.255, 0.46
134.348, 0.48
134.450, -0.63
134.452, -0.28
134.456, 0.50
134.548, 0.45
134.650, -0.56
134.652, -0.28
134.655, 0.45
134.748, 0.45
134.752, -0.46
134.754, -1.01
134.851, -0.52
134.852, -0.31
134.856, 0.48
134.948, 0.37
134.952, -0.36
134.953, -0.64
135.052, -0.27
135.052, -0.21
135.056, 0.51
135.148, 0.50
135.152, -0.38
135.153, -0.77
135.256, 0.49
135.348, 0.40
135.352, -0.37
135.356, -1.11
135.449, -0.78
135.450, -0.51
135.455, 0.45
135.548, 0.41
135.552, -0.27
135.552, -0.41
135.655, 0.45
135.748, 0.45
135.855, 0.41
135.948, 0.46
135.952, -0.27
135.953, -0.59
136.055, 0.45
136.148, 0.41
136.250, -0.49
136.252, -0.24
136.256, 0.48
136.348, 0.40
136.354, -0.80
136.354, -1.02
136.451, -0.49
136.451, -0.32
136.455, 0.46
136.548, 0.41
136.552, -0.35
136.553, -0.58
136.555, -1.01
136.556, -1.11
136.655, 0.45
136.748, 0.41
136.850, -0.48
136.852, -0.28
136.855, 0.46
136.948, 0.41
137.050, -0.59
137.052, -0.27
137.055, 0.41
137.148, 0.39
137.255, 0.41
137.348, 0.41
137.352, -0.22
137.352, -0.34
137.355, -1.02
137.356, -1.13
137.451, -0.47
137.451, -0.34
137.455, 0.45
137.548, 0.41
137.554, -0.71
137.555, -1.12
137.655, 0.45
137.748, 0.40
137.753, -0.62
137.755, -1.00
137.855, 0.44
137.948, 0.37
137.951, -0.21
137.952, -0.38
137.953, -0.63
137.955, -0.97
138.055, 0.44
138.148, 0.47
138.153, -0.52
138.153, -0.71
138.255, 0.43
138.348, 0.38
138.352, -0.24
138.355, -0.95
138.455, 0.43
138.548, 0.36
138.553, -0.71
138.554, -0.96
138.650, -0.51
138.652, -0.26
138.655, 0.43
138.748, 0.49
138.751, -0.21
138.752, -0.39
138.856, 0.49
138.948, 0.46
139.055, 0.47
139.148, 0.42
139.153, -0.64
139.156, -1.09
139.255, 0.47
139.348, 0.39
139.352, -0.33
139.355, -0.95
139.450, -0.63
139.452, -0.26
139.455, 0.44
139.548, 0.42
139.551, -0.23
139.552, -0.46
139.553, -0.68
139.554, -0.81
139.655, 0.46
139.748, 0.44
139.752, -0.44
139.754, -0.79
139.850, -0.52
139.852, -0.24
139.855, 0.44
139.948, 0.46
139.953, -0.55
139.956, -1.08
140.055, 0.36
140.148, 0.49
140.250, -0.51
140.252, -0.26
140.255, 0.41
140.348, 0.42
140.352, -0.44
140.353, -0.72
140.455, 0.44
140.548, 0.38
140.552, -0.51
140.553, -0.70
140.555, -0.85
140.556, -1.11
140.655, 0.42
140.748, 0.39
140.751, -0.24
140.753, -0.73
140.754, -0.96
140.756, -1.12
140.855, 0.43
140.949, 0.35
140.952, -0.41
140.954, -1.00
141.055, 0.44
141.148, 0.43
141.155, -0.99
141.155, -1.00
141.255, 0.47
141.348, 0.42
141.455, 0.43
141.548, 0.46
141.553, -0.62
141.555, -1.05
141.655, 0.47
141.748, 0.41
141.752, -0.51
141.753, -0.73
141.850, -0.56
141.852, -0.27
141.855, 0.38
141.948, 0.39
142.055, 0.36
142.148, 0.42
142.153, -0.80
142.156, -1.13
142.250, -0.60
142.252, -0.31
142.255, 0.34
142.348, 0.40
142.455, 0.37
142.548, 0.44
142.655, 0.43
142.748, 0.49
142.752, -0.43
142.755, -0.97
142.855, 0.34
142.948, 0.41
142.951, -0.19
142.952, -0.41
142.954, -0.92
142.954, -1.00
143.050, -0.54
143.052, -0.27
143.055, 0.45
143.148, 0.40
143.152, -0.45
143.154, -1.01
143.255, 0.38
143.348, 0.38
143.354, -0.79
143.356, -1.12
143.455, 0.39
143.548, 0.41
143.552, -0.38
143.554, -0.69
143.655, 0.47
143.748, 0.42
143.752, -0.39
143.753, -0.66
143.755, -0.90
143.756, -1.11
143.855, 0.35
143.948, 0.43
143.954, -0.90
143.956, -1.12
144.055, 0.44
144.148, 0.41
144.152, -0.45
144.154, -0.74
144.255, 0.40
144.348, 0.43
144.450, -0.61
144.452, -0.27
144.455, 0.42
144.548, 0.43
144.553, -0.48
144.553, -0.61
144.554, -0.85
144.556, -1.14
144.650, -0.56
144.652, -0.31
144.655, 0.33
144.748, 0.43
144.752, -0.41
144.754, -0.87
144.851, -0.50
144.852, -0.29
144.855, 0.41
144.948, 0.47
144.951, -0.23
144.955, -0.99
145.055, 0.35
145.148, 0.47
145.152, -0.46
145.153, -0.66
145.255, 0.35
145.348, 0.46
145.353, -0.79
145.354, -1.05
145.455, 0.46
145.548, 0.49
145.551, -0.23
145.555, -1.01
145.655, 0.39
145.748, 0.41
145.753, -0.44
145.754, -0.96
145.754, -1.04
145.756, -1.10
145.855, 0.43
145.948, 0.44
145.951, -0.24
145.952, -0.42
145.954, -0.99
145.956, -1.12
146.055, 0.36
146.148, 0.46
146.152, -0.29
146.152, -0.45
146.255, 0.38
146.348, 0.41
146.352, -0.38
146.355, -1.12
146.455, 0.38
146.548, 0.39
146.552, -0.35
146.553, -0.66
146.655, 0.43
146.748, 0.39
146.752, -0.42
146.755, -0.99
146.850, -0.54
146.852, -0.35
146.855, 0.35
146.948, 0.39
146.951, -0.25
146.952, -0.39
147.055, 0.41
147.148, 0.46
147.154, -0.89
147.154, -1.03
147.255, 0.36
147.348, 0.40
147.354, -0.91
147.355, -1.08
147.455, 0.40
147.548, 0.44
147.553, -0.45
147.556, -1.10
147.655, 0.44
147.748, 0.38
147.753, -0.67
147.755, -1.00
147.850, -0.60
147.851, -0.40
147.855, 0.42
147.948, 0.42
147.952, -0.44
147.953, -0.67
148.055, 0.47
148.148, 0.47
148.153, -0.82
148.156, -1.12
148.255, 0.42
148.348, 0.42
148.352, -0.23
148.352, -0.40
148.353, -0.81
148.356, -1.12
148.450, -0.49
148.452, -0.27
148.455, 0.38
148.548, 0.38
148.655, 0.45
148.748, 0.42
148.751, -0.21
148.752, -0.43
148.755, -0.95
148.755, -1.04
148.855, 0.44
148.948, 0.39
149.050, -0.49
149.052, -0.27
149.055, 0.43
149.148, 0.47
149.152, -0.24
149.155, -1.07
149.250, -0.53
149.252, -0.28
149.255, 0.42
149.348, 0.39
149.353, -0.88
149.354, -0.99
149.450, -0.62
149.452, -0.32
149.455, 0.44
149.548, 0.37
149.552, -0.28
149.552, -0.36
149.651, -0.53
149.651, -0.53
149.655, 0.38
149.748, 0.39
149.850, -0.53
149.852, -0.31
149.855, 0.43
149.948, 0.39
149.952, -0.24
149.952, -0.44
150.055, 0.43
150.148, 0.39
150.152, -0.29
150.154, -0.68
150.251, -0.56
150.252, -0.30
150.255, 0.40
150.348, 0.39
150.353, -0.45
150.353, -0.63
150.455, 0.47
150.548, 0.38
150.655, 0.42
150.748, 0.40
150.754, -0.83
150.755, -1.03
150.851, -0.54
150.851, -0.42
150.855, 0.45
150.948, 0.40
150.952, -0.30
150.952, -0.37
150.954, -0.90
150.956, -1.12
151.051, -0.48
151.051, -0.47
151.055, 0.46
151.148, 0.41
151.250, -0.59
151.252, -0.28
151.255, 0.42
151.348, 0.39
151.352, -0.37
151.354, -0.66
151.456, 0.48
151.548, 0.42
151.554, -0.86
151.556, -1.12
151.649, -0.82
151.651, -0.60
151.655, 0.44
151.748, 0.46
151.752, -0.46
151.753, -0.71
151.855, 0.43
151.949, 0.36
151.952, -0.31
151.955, -1.06
152.055, 0.41
152.148, 0.41
152.154, -0.75
152.156, -1.11
152.255, 0.43
152.348, 0.39
152.352, -0.26
152.353, -0.68
152.455, 0.42
152.548, 0.42
152.552, -0.28
152.552, -0.42
152.553, -0.81
152.554, -1.01
152.651, -0.49
152.652, -0.30
152.655, 0.47
152.748, 0.42
152.855, 0.42
152.948, 0.43
152.952, -0.36
152.953, -0.67
152.955, -0.91
152.956, -1.12
153.050, -0.83
153.052, -0.27
153.055, 0.46
153.148, 0.49
153.155, -0.92
153.156, -1.10
153.255, 0.42
153.348, 0.46
153.352, -0.39
153.356, -1.12
153.456, 0.48
153.548, 0.41
153.552, -0.31
153.552, -0.42
153.655, 0.45
153.748, 0.43
153.752, -0.38
153.753, -0.75
153.755, -1.05
153.756, -1.13
153.850, -0.55
153.852, -0.29
153.855, 0.45
153.948, 0.44
153.953, -0.74
153.955, -0.97
154.055, 0.42
154.148, 0.39
154.152, -0.24
154.152, -0.42
154.155, -0.96
154.155, -1.07
154.255, 0.40
154.348, 0.41
154.451, -0.51
154.452, -0.29
154.456, 0.48
154.548, 0.48
154.554, -0.87
154.556, -1.11
154.649, -0.83
154.651, -0.58
154.655, 0.43
154.748, 0.38
154.751, -0.22
154.753, -0.72
154.855, 0.43
154.948, 0.39
154.952, -0.21
154.954, -0.85
155.055, 0.43
155.148, 0.41
155.153, -0.66
155.156, -1.12
155.250, -0.53
155.252, -0.29
155.255, 0.47
155.348, 0.44
155.351, -0.21
155.353, -0.50
155.455, 0.38
155.548, 0.44
155.552, -0.44
155.554, -0.75
155.655, 0.43
155.748, 0.41
155.752, -0.31
155.752, -0.37
155.754, -0.95
155.754, -0.98
155.855, 0.45
155.948, 0.41
155.953, -0.53
155.953, -0.65
156.055, 0.47
156.148, 0.46
156.152, -0.48
156.155, -1.08
156.256, 0.47
156.348, 0.46
156.353, -0.76
156.356, -1.09
156.455, 0.40
156.548, 0.41
156.553, -0.48
156.553, -0.59
156.655, 0.42
156.748, 0.40
156.753, -0.83
156.755, -0.95
156.850, -0.61
156.852, -0.26
156.855, 0.43
156.948, 0.39
156.952, -0.25
156.952, -0.39
157.051, -0.53
157.051, -0.41
157.055, 0.44
157.148, 0.41
157.153, -0.81
157.155, -0.95
157.255, 0.46
157.348, 0.44
157.354, -0.86
157.354, -1.03
157.455, 0.45
157.548, 0.41
157.552, -0.24
157.555, -1.00
157.655, 0.42
157.748, 0.41
157.850, -0.54
157.852, -0.29
157.855, 0.40
157.948, 0.45
157.955, -0.98
157.956, -1.10
158.050, -0.51
158.052, -0.27
158.055, 0.41
158.148, 0.39
158.251, -0.50
158.251, -0.47
158.255, 0.40
158.348, 0.39
158.352, -0.31
158.352, -0.40
158.354, -0.80
158.356, -1.11
158.455, 0.44
158.548, 0.39
158.551, -0.21
158.552, -0.37
158.555, -0.98
158.555, -1.07
158.655, 0.47
158.748, 0.41
158.752, -0.39
158.753, -0.67
158.755, -0.90
158.756, -1.10
158.855, 0.42
158.948, 0.41
159.055, 0.44
159.148, 0.44
159.154, -0.80
159.154, -0.91
159.250, -0.48
159.252, -0.27
159.255, 0.39
159.348, 0.45
159.352, -0.32
159.352, -0.40
159.355, -0.93
159.356, -1.10
159.455, 0.40
159.548, 0.38
159.552, -0.24
159.554, -0.82
159.650, -0.57
159.652, -0.26
159.655, 0.42
159.748, 0.40
159.753, -0.76
159.755, -1.05
159.855, 0.41
159.948, 0.47
159.951, -0.20
159.953, -0.46
159.954, -0.92
159.956, -1.14
160.055, 0.44
160.148, 0.39
160.153, -0.58
160.155, -1.03
160.251, -0.42
160.251, -0.34
160.255, 0.41
160.348, 0.38
160.352, -0.50
160.356, -1.11
160.451, -0.41
160.451, -0.37
160.455, 0.44
160.548, 0.47
160.555, -0.97
160.556, -1.09
160.650, -0.54
160.652, -0.28
160.655, 0.41
160.748, 0.42
160.753, -0.42
160.754, -0.92
160.855, 0.41
160.948, 0.40
160.953, -0.45
160.953, -0.65
161.055, 0.41
161.148, 0.46
161.153, -0.45
161.153, -0.67
161.154, -0.97
161.155, -1.08
161.255, 0.36
161.348, 0.39
161.352, -0.24
161.355, -0.97
161.455, 0.40
161.549, 0.36
161.552, -0.28
161.552, -0.39
161.554, -0.86
161.556, -1.08
161.650, -0.58
161.652, -0.31
161.655, 0.45
161.748, 0.43
161.754, -0.78
161.756, -1.07
161.855, 0.41
161.948, 0.42
161.953, -0.77
161.956, -1.08
162.049, -0.82
162.051, -0.57
162.055, 0.44
162.148, 0.37
162.255, 0.40
162.348, 0.44
162.455, 0.40
162.548, 0.38
162.555, -0.91
162.556, -1.09
162.655, 0.39
162.748, 0.37
162.752, -0.46
162.754, -0.92
162.754, -0.97
162.756, -1.11
162.855, 0.41
162.948, 0.40
162.952, -0.34
162.952, -0.38
162.955, -0.95
162.956, -1.10
163.050, -0.54
163.052, -0.28
163.055, 0.38
163.148, 0.40
163.152, -0.44
163.153, -0.70
163.155, -0.93
163.156, -1.10
163.250, -0.57
163.252, -0.29
163.255, 0.41
163.348, 0.43
163.354, -0.69
163.354, -0.83
163.455, 0.44
163.548, 0.38
163.552, -0.29
163.553, -0.74
163.555, -0.97
163.556, -1.07
163.651, -0.41
163.651, -0.38
163.655, 0.41
163.748, 0.38
163.752, -0.39
163.753, -0.69
163.855, 0.46
163.948, 0.47
164.055, 0.38
164.148, 0.42
164.152, -0.45
164.154, -0.69
164.154, -0.79
164.156, -1.10
164.255, 0.39
164.348, 0.37
164.450, -0.58
164.452, -0.26
164.455, 0.47
164.548, 0.39
164.555, -0.95
164.556, -1.10
164.655, 0.41
164.748, 0.42
164.752, -0.46
164.754, -1.00
164.855, 0.43
164.948, 0.45
164.954, -0.74
164.956, -1.10
165.055, 0.42
165.148, 0.46
165.153, -0.48
165.153, -0.72
165.255, 0.40
165.348, 0.40
165.352, -0.29
165.356, -1.06
165.451, -0.51
165.451, -0.45
165.455, 0.39
165.549, 0.36
165.655, 0.45
165.748, 0.40
165.754, -0.73
165.756, -1.11
165.851, -0.52
165.852, -0.34
165.855, 0.35
165.948, 0.42
166.051, -0.48
166.051, -0.40
166.055, 0.40
166.148, 0.37
166.152, -0.26
166.152, -0.34
166.153, -0.68
166.155, -1.00
166.255, 0.42
166.348, 0.43
166.455, 0.41
166.548, 0.40
166.553, -0.70
166.556, -1.14
166.655, 0.36
166.748, 0.39
166.753, -0.59
166.753, -0.62
166.755, -1.02
166.755, -1.09
166.855, 0.38
166.948, 0.37
167.055, 0.40
167.148, 0.39
167.154, -0.80
167.156, -1.09
167.250, -0.50
167.252, -0.28
167.255, 0.41
167.348, 0.44
167.355, -1.05
167.356, -1.14
167.450, -0.50
167.452, -0.28
167.455, 0.34
167.548, 0.41
167.553, -0.63
167.555, -1.07
167.650, -0.56
167.652, -0.28
167.655, 0.37
167.748, 0.37
167.754, -0.85
167.754, -0.92
167.850, -0.56
167.852, -0.26
167.855, 0.40
167.948, 0.39
167.953, -0.75
167.955, -1.01
168.050, -0.54
168.052, -0.26
168.055, 0.45
168.148, 0.39
168.152, -0.26
168.152, -0.40
168.255, 0.41
168.348, 0.38
168.352, -0.28
168.352, -0.31
168.353, -0.81
168.354, -1.00
168.455, 0.40
168.548, 0.38
168.553, -0.59
168.555, -1.03
168.650, -0.57
168.652, -0.25
168.655, 0.37
168.748, 0.39
168.752, -0.24
168.752, -0.37
168.855, 0.33
168.948, 0.45
168.952, -0.23
168.952, -0.31
169.055, 0.44
169.148, 0.39
169.152, -0.23
169.155, -1.05
169.247, -1.21
169.247, -1.17
169.255, 0.34
169.348, 0.37
169.355, -0.95
169.355, -1.09
169.455, 0.35
169.548, 0.42
169.553, -0.57
169.556, -1.09
169.650, -0.58
169.652, -0.31
169.655, 0.36
169.748, 0.38
169.752, -0.37
169.754, -0.96
169.855, 0.38
169.948, 0.38
169.952, -0.37
169.953, -0.75
170.055, 0.39
170.148, 0.40
170.152, -0.39
170.155, -1.09
170.255, 0.42
170.349, 0.36
170.455, 0.42
170.548, 0.37
170.552, -0.25
170.553, -0.74
170.655, 0.39
170.748, 0.39
170.850, -0.58
170.852, -0.26
170.855, 0.37
170.948, 0.43
170.954, -0.95
170.954, -1.02
171.055, 0.39
171.148, 0.37
171.250, -0.54
171.252, -0.28
171.255, 0.42
171.348, 0.38
171.354, -0.74
171.356, -1.10
171.455, 0.41
171.548, 0.37
171.655, 0.41
171.749, 0.36
171.855, 0.36
171.948, 0.38
171.953, -0.76
171.956, -1.11
172.055, 0.39
172.149, 0.35
172.152, -0.22
172.153, -0.56
172.155, -0.95
172.156, -1.10
172.255, 0.39
172.349, 0.33
172.352, -0.23
172.356, -1.10
172.455, 0.43
172.549, 0.35
172.552, -0.46
172.553, -0.76
172.655, 0.37
172.749, 0.34
172.754, -0.81
172.755, -1.02
172.850, -0.58
172.852, -0.28
172.855, 0.35
172.948, 0.40
172.952, -0.24
172.952, -0.33
173.055, 0.38
173.148, 0.38
173.153, -0.78
173.155, -0.98
173.255, 0.38
173.348, 0.40
173.455, 0.38
173.548, 0.39
173.552, -0.25
173.552, -0.34
173.655, 0.41
173.748, 0.37
173.855, 0.41
173.948, 0.38
173.952, -0.50
173.953, -0.76
174.055, 0.39
174.149, 0.36
174.152, -0.44
174.153, -0.77
174.255, 0.40
174.348, 0.41
174.455, 0.38
174.549, 0.29
174.551, -0.24
174.553, -0.71
174.651, -0.43
174.651, -0.32
174.655, 0.39
174.749, 0.32
174.753, -0.71
174.756, -1.10
174.855, 0.44
174.949, 0.27
174.952, -0.30
174.952, -0.35
175.055, 0.42
175.149, 0.34
175.249, -0.77
175.251, -0.54
175.255, 0.36
175.349, 0.35
175.352, -0.31
175.355, -1.08
175.448, -1.01
175.448, -1.00
175.451, -0.60
175.452, -0.31
175.455, 0.41
175.549, 0.36
175.651, -0.65
175.652, -0.37
175.655, 0.40
175.749, 0.35
175.753, -0.76
175.755, -1.13
175.849, -0.75
175.851, -0.50
175.855, 0.39
175.949, 0.34
175.952, -0.40
175.953, -0.66
176.055, 0.38
176.149, 0.35
176.152, -0.46
176.154, -1.01
176.249, -0.77
176.251, -0.58
176.255, 0.38
176.349, 0.32
176.352, -0.39
176.355, -1.03
176.449, -0.80
176.451, -0.55
176.455, 0.41
176.549, 0.34
176.554, -1.00
176.556, -1.11
176.655, 0.42
176.749, 0.32
176.752, -0.41
176.755, -0.98
176.855, 0.43
176.949, 0.26
176.952, -0.40
176.953, -0.73
176.955, -0.94
176.956, -1.08
177.051, -0.46
177.051, -0.35
177.055, 0.39
177.149, 0.36
177.154, -0.83
177.154, -1.04
177.250, -0.53
177.252, -0.27
177.255, 0.41
177.349, 0.29
177.352, -0.46
177.355, -0.98
177.455, 0.41
177.549, 0.29
177.553, -0.58
177.553, -0.64
177.555, -1.03
177.555, -1.03
177.655, 0.37
177.749, 0.25
177.751, -0.21
177.754, -0.73
177.850, -0.51
177.852, -0.26
177.855, 0.40
177.948, 0.37
177.952, -0.43
177.953, -0.67
178.055, 0.40
178.149, 0.30
178.153, -0.76
178.155, -1.01
178.251, -0.58
178.251, -0.46
178.255, 0.44
178.349, 0.36
178.449, -0.79
178.451, -0.48
178.455, 0.36
178.549, 0.35
178.553, -0.66
178.555, -1.02
178.651, -0.47
178.652, -0.30
178.655, 0.41
178.749, 0.32
178.855, 0.42
178.948, 0.39
178.953, -0.68
178.955, -1.03
179.055, 0.40
179.149, 0.31
179.255, 0.39
179.348, 0.41
179.352, -0.33
179.354, -0.93
179.455, 0.43
179.548, 0.36
179.555, -1.04
179.555, -1.07
179.655, 0.44
179.749, 0.24
179.755, -1.02
179.755, -1.06
179.855, 0.43
179.949, 0.32
179.953, -0.67
179.955, -1.07
180.051, -0.45
180.051, -0.35
180.055, 0.38
180.149, 0.32
180.152, -0.39
180.153, -0.71
180.255, 0.35
180.349, 0.35
180.451, -0.52
180.452, -0.28
180.455, 0.34
180.548, 0.39
180.552, -0.44
180.553, -0.67
180.651, -0.45
180.651, -0.34
180.655, 0.37
180.749, 0.35
180.752, -0.26
180.752, -0.35
180.754, -0.79
180.755, -1.01
180.849, -0.80
180.852, -0.28
180.855, 0.37
180.949, 0.24
180.952, -0.25
180.954, -0.96
181.055, 0.41
181.149, 0.32
181.154, -0.73
181.155, -1.12
181.255, 0.39
181.348, 0.38
181.352, -0.44
181.354, -0.91
181.354, -0.99
181.356, -1.12
181.455, 0.36
181.549, 0.35
181.649, -0.72
181.651, -0.50
181.655, 0.39
181.749, 0.35
181.755, -0.99
181.756, -1.09
181.851, -0.41
181.851, -0.32
181.855, 0.44
181.949, 0.35
181.954, -0.74
181.956, -1.11
182.050, -0.53
182.052, -0.25
182.055, 0.40
182.148, 0.39
182.153, -0.48
182.155, -1.04
182.255, 0.39
182.348, 0.39
182.352, -0.30
182.352, -0.30
182.355, -0.88
182.356, -1.11
182.450, -0.50
182.452, -0.27
182.455, 0.36
182.548, 0.38
182.554, -0.95
182.556, -1.10
182.655, 0.38
182.748, 0.38
182.755, -0.92
182.756, -1.11
182.855, 0.36
182.948, 0.38
182.954, -0.81
182.954, -1.03
183.050, -0.55
183.052, -0.35
183.055, 0.42
183.149, 0.35
183.155, -0.99
183.155, -1.01
183.255, 0.42
183.348, 0.37
183.352, -0.37
183.355, -1.10
183.455, 0.38
183.549, 0.34
183.555, -0.89
183.556, -1.11
183.650, -0.50
183.652, -0.27
183.655, 0.37
183.748, 0.40
183.752, -0.35
183.753, -0.71
183.855, 0.33
183.948, 0.39
184.055, 0.36
184.148, 0.39
184.153, -0.61
184.154, -1.04
184.255, 0.40
184.348, 0.36
184.352, -0.23
184.355, -1.06
184.455, 0.40
184.549, 0.34
184.555, -0.90
184.556, -1.10
184.650, -0.51
184.652, -0.27
184.655, 0.37
184.748, 0.37
184.752, -0.40
184.753, -0.68
184.850, -0.51
184.852, -0.26
184.855, 0.31
184.948, 0.39
184.954, -0.85
184.956, -1.09
185.055, 0.38
185.148, 0.37
185.152, -0.37
185.154, -1.06
185.255, 0.38
185.349, 0.34
185.355, -0.89
185.356, -1.11
185.450, -0.55
185.452, -0.27
185.455, 0.40
185.549, 0.34
185.552, -0.26
185.552, -0.30
185.554, -0.79
185.554, -0.90
185.655, 0.39
185.748, 0.38
185.753, -0.67
185.755, -0.95
185.850, -0.61
185.852, -0.34
185.855, 0.34
185.948, 0.39
185.955, -0.91
185.956, -1.10
186.050, -0.53
186.052, -0.29
186.055, 0.33
186.148, 0.37
186.153, -0.70
186.156, -1.11
186.250, -0.52
186.252, -0.31
186.255, 0.39
186.349, 0.36
186.353, -0.62
186.355, -1.05
186.450, -0.62
186.452, -0.27
186.455, 0.41
186.549, 0.31
186.555, -0.98
186.556, -1.10
186.655, 0.36
186.749, 0.36
186.855, 0.35
186.949, 0.36
186.953, -0.48
186.954, -0.96
187.055, 0.39
187.149, 0.35
187.152, -0.38
187.153, -0.64
187.250, -0.59
187.252, -0.26
187.255, 0.35
187.348, 0.39
187.353, -0.67
187.355, -1.04
187.450, -0.59
187.452, -0.31
187.455, 0.33
187.548, 0.37
187.555, -0.94
187.556, -1.10
187.655, 0.34
187.749, 0.35
187.753, -0.69
187.755, -1.06
187.855, 0.41
187.948, 0.38
187.952, -0.46
187.954, -0.95
188.055, 0.35
188.148, 0.37
188.152, -0.34
188.156, -1.10
188.255, 0.36
188.349, 0.35
188.353, -0.49
188.353, -0.65
188.455, 0.41
188.548, 0.39
188.552, -0.37
188.553, -0.67
188.555, -0.99
188.555, -1.04
188.655, 0.33
188.748, 0.37
188.855, 0.35
188.949, 0.34
188.952, -0.28
188.952, -0.30
188.953, -0.64
188.955, -1.01
189.055, 0.43
189.148, 0.43
189.152, -0.37
189.155, -0.96
189.255, 0.36
189.349, 0.36
189.455, 0.41
189.549, 0.32
189.554, -0.75
189.555, -0.99
189.650, -0.56
189.652, -0.29
189.655, 0.39
189.749, 0.36
189.754, -0.89
189.755, -1.01
189.855, 0.36
189.949, 0.34
189.953, -0.70
189.956, -1.11
190.050, -0.49
190.052, -0.28
190.055, 0.43
190.149, 0.35
190.153, -0.44
190.154, -0.75
190.154, -0.90
190.156, -1.09
190.255, 0.33
190.349, 0.35
190.455, 0.34
190.548, 0.36
190.655, 0.35
190.748, 0.38
190.754, -0.91
190.754, -1.02
190.855, 0.34
190.949, 0.32
190.955, -0.96
190.956, -1.08
191.050, -0.59
191.052, -0.25
191.055, 0.35
191.149, 0.35
191.153, -0.70
191.155, -0.94
191.255, 0.35
191.349, 0.34
191.355, -0.92
191.356, -1.11
191.455, 0.40
191.549, 0.31
191.552, -0.45
191.554, -1.01
191.655, 0.33
191.749, 0.34
191.754, -0.86
191.754, -1.01
191.855, 0.38
191.949, 0.32
192.055, 0.35
192.149, 0.34
192.154, -0.90
192.156, -1.10
192.255, 0.39
192.349, 0.33
192.353, -0.71
192.354, -0.96
192.455, 0.33
192.549, 0.34
192.552, -0.40
192.554, -0.76
192.655, 0.40
192.748, 0.38
192.752, -0.31
192.752, -0.31
192.855, 0.33
192.949, 0.32
193.055, 0.40
193.148, 0.37
193.153, -0.41
193.155, -0.90
193.255, 0.32
193.349, 0.33
193.451, -0.50
193.451, -0.38
193.455, 0.31
193.549, 0.33
193.650, -0.56
193.652, -0.32
193.655, 0.38
193.749, 0.33
193.752, -0.26
193.752, -0.32
193.753, -0.64
193.755, -0.92
193.855, 0.34
193.949, 0.32
194.055, 0.39
194.149, 0.35
194.154, -0.86
194.156, -1.04
194.250, -0.55
194.252, -0.31
194.255, 0.39
194.349, 0.32
194.355, -0.97
194.355, -1.07
194.455, 0.35
194.549, 0.32
194.554, -0.73
194.554, -0.85
194.655, 0.41
194.749, 0.35
194.752, -0.28
194.752, -0.34
194.850, -0.56
194.852, -0.28
194.855, 0.31
194.949, 0.33
194.952, -0.36
194.956, -1.06
195.054, 0.26
195.149, 0.34
195.152, -0.23
195.152, -0.33
195.155, -1.04
195.156, -1.11
195.255, 0.37
195.349, 0.35
195.353, -0.66
195.355, -1.01
195.455, 0.32
195.549, 0.32
195.552, -0.25
195.552, -0.37
195.553, -0.75
195.554, -1.00
195.655, 0.36
195.748, 0.36
195.855, 0.41
195.948, 0.38
195.952, -0.49
195.955, -0.94
196.051, -0.42
196.051, -0.33
196.055, 0.35
196.149, 0.32
196.255, 0.31
196.348, 0.36
196.355, -0.89
196.356, -1.12
196.450, -0.50
196.452, -0.26
196.455, 0.36
196.549, 0.31
196.655, 0.34
196.749, 0.25
196.752, -0.37
196.754, -0.87
196.851, -0.46
196.851, -0.45
196.855, 0.32
196.949, 0.33
196.952, -0.38
196.955, -1.07
197.054, 0.27
197.148, 0.38
197.152, -0.39
197.153, -0.71
197.155, -0.91
197.155, -1.03
197.250, -0.53
197.252, -0.28
197.255, 0.29
197.349, 0.28
197.353, -0.48
197.355, -0.93
197.454, 0.28
197.548, 0.36
197.554, -0.84
197.556, -1.12
197.651, -0.47
197.651, -0.41
197.655, 0.32
197.748, 0.39
197.752, -0.45
197.755, -0.94
197.855, 0.31
197.949, 0.33
197.954, -0.76
197.956, -1.13
198.051, -0.53
198.052, -0.33
198.055, 0.31
198.149, 0.35
198.152, -0.43
198.153, -0.75
198.155, -0.96
198.156, -1.11
198.255, 0.31
198.348, 0.37
198.352, -0.27
198.353, -0.71
198.355, -0.89
198.356, -1.10
198.455, 0.36
198.548, 0.36
198.555, -1.10
198.556, -1.19
198.655, 0.35
198.749, 0.31
198.752, -0.41
198.754, -0.86
198.851, -0.49
198.851, -0.39
198.855, 0.31
198.949, 0.35
199.055, 0.29
199.149, 0.33
199.152, -0.27
199.152, -0.38
199.153, -0.77
199.156, -1.16
199.250, -0.56
199.252, -0.28
199.255, 0.39
199.349, 0.35
199.353, -0.65
199.354, -1.00
199.454, 0.26
199.548, 0.38
199.650, -0.55
199.652, -0.30
199.654, 0.27
199.749, 0.34
199.754, -0.78
199.754, -1.02
199.851, -0.52
199.851, -0.33
199.854, 0.28
199.949, 0.31
199.952, -0.26
199.952, -0.32
199.954, -0.79
199.955, -1.05
200.055, 0.32
200.149, 0.32
200.152, -0.44
200.153, -0.74
200.155, -1.03
200.155, -1.08
200.255, 0.29
200.349, 0.28
200.355, -0.94
200.355, -1.04
200.455, 0.29
200.549, 0.33
200.553, -0.66
200.555, -0.99
200.650, -0.52
200.652, -0.28
200.655, 0.32
200.749, 0.35
200.855, 0.33
200.949, 0.31
201.055, 0.31
201.149, 0.34
201.251, -0.53
201.251, -0.35
201.255, 0.34
201.349, 0.32
201.455, 0.36
201.549, 0.34
201.552, -0.45
201.554, -0.86
201.650, -0.53
201.652, -0.29
201.655, 0.35
201.749, 0.34
201.753, -0.44
201.754, -0.93
201.855, 0.33
201.949, 0.30
201.955, -0.96
201.956, -1.05
202.050, -0.54
202.052, -0.30
202.055, 0.32
202.149, 0.33
202.153, -0.64
202.156, -1.15
202.255, 0.35
202.349, 0.26
202.352, -0.38
202.356, -1.18
202.455, 0.34
202.549, 0.29
202.555, -0.99
202.556, -1.16
202.655, 0.32
202.749, 0.29
202.752, -0.41
202.754, -1.03
202.855, 0.34
202.949, 0.25
202.953, -0.66
202.955, -1.05
203.055, 0.33
203.149, 0.25
203.152, -0.29
203.153, -0.55
203.251, -0.48
203.252, -0.31
203.255, 0.34
203.349, 0.31
203.352, -0.40
203.355, -1.07
203.356, -1.17
203.356, -1.18
203.455, 0.31
203.549, 0.31
203.650, -0.61
203.652, -0.27
203.655, 0.37
203.749, 0.28
203.755, -0.88
203.756, -1.07
203.855, 0.30
203.949, 0.33
203.953, -0.59
203.956, -1.08
204.055, 0.31
204.149, 0.28
204.155, -0.94
204.156, -1.10
204.255, 0.31
204.349, 0.31
204.352, -0.43
204.353, -0.68
204.450, -0.56
204.452, -0.32
204.455, 0.32
204.549, 0.30
204.655, 0.35
204.749, 0.30
204.752, -0.30
204.753, -0.73
204.850, -0.54
204.852, -0.32
204.855, 0.33
204.949, 0.30
204.952, -0.38
204.956, -1.09
205.055, 0.41
205.149, 0.29
205.153, -0.64
205.155, -1.07
205.255, 0.34
205.349, 0.26
205.352, -0.37
205.353, -0.57
205.355, -0.91
205.356, -1.08
205.455, 0.36
205.549, 0.29
205.552, -0.26
205.552, -0.31
205.554, -0.83
205.554, -0.95
205.651, -0.47
205.651, -0.33
205.655, 0.34
205.749, 0.26
205.753, -0.78
205.756, -1.11
205.855, 0.31
205.949, 0.30
205.953, -0.64
205.953, -0.65
205.955, -0.98
205.955, -1.06
206.055, 0.31
206.149, 0.34
206.255, 0.31
206.349, 0.32
206.449, -0.75
206.451, -0.55
206.455, 0.31
206.549, 0.25
206.553, -0.65
206.555, -1.04
206.655, 0.31
206.749, 0.29
206.755, -0.93
206.756, -1.10
206.855, 0.34
206.949, 0.34
207.050, -0.52
207.052, -0.30
207.055, 0.31
207.149, 0.32
207.152, -0.31
207.152, -0.34
207.155, -0.92
207.156, -1.11
207.251, -0.48
207.251, -0.39
207.255, 0.33
207.349, 0.33
207.352, -0.39
207.353, -0.69
207.455, 0.37
207.549, 0.27
207.553, -0.75
207.555, -1.02
207.655, 0.36
207.749, 0.26
207.754, -0.79
207.755, -1.03
207.851, -0.43
207.851, -0.36
207.855, 0.32
207.949, 0.29
208.051, -0.49
208.051, -0.31
208.055, 0.34
208.149, 0.26
208.152, -0.26
208.152, -0.31
208.155, -0.94
208.156, -1.09
208.255, 0.32
208.349, 0.27
208.353, -0.46
208.353, -0.57
208.355, -0.92
208.356, -1.08
208.455, 0.33
208.549, 0.31
208.552, -0.41
208.553, -0.68
208.555, -1.03
208.555, -1.09
208.655, 0.33
208.749, 0.33
208.855, 0.34
208.949, 0.31
209.055, 0.38
209.149, 0.31
209.153, -0.59
209.154, -0.97
209.250, -0.63
209.252, -0.29
209.255, 0.32
209.349, 0.31
209.353, -0.68
209.354, -0.97
209.451, -0.47
209.452, -0.30
209.455, 0.32
209.549, 0.31
209.655, 0.32
209.749, 0.30
209.753, -0.68
209.755, -1.08
209.855, 0.37
209.949, 0.32
210.051, -0.51
210.051, -0.46
210.055, 0.32
210.149, 0.26
210.153, -0.60
210.155, -1.05
210.255, 0.34
210.349, 0.28
210.355, -0.86
210.356, -1.10
210.450, -0.58
210.452, -0.25
210.455, 0.31
210.549, 0.33
210.650, -0.54
210.652, -0.26
210.655, 0.32
210.749, 0.33
210.753, -0.75
210.756, -1.12
210.855, 0.35
210.949, 0.23
210.953, -0.57
210.955, -1.04
211.055, 0.36
211.149, 0.28
211.255, 0.29
211.349, 0.33
211.355, -0.90
211.356, -1.11
211.455, 0.35
211.549, 0.31
211.552, -0.33
211.555, -1.06
211.651, -0.55
211.652, -0.34
211.655, 0.32
211.749, 0.31
211.850, -0.61
211.852, -0.27
211.855, 0.30
211.949, 0.32
211.952, -0.36
211.953, -0.59
211.955, -0.89
211.956, -1.11
212.050, -0.51
212.052, -0.27
212.055, 0.31
212.149, 0.29
212.155, -0.94
212.156, -1.10
212.255, 0.32
212.349, 0.33
212.352, -0.39
212.354, -0.97
212.451, -0.46
212.451, -0.43
212.455, 0.38
212.549, 0.28
212.555, -0.88
212.556, -1.11
212.655, 0.29
212.749, 0.32
212.851, -0.47
212.851, -0.30
212.855, 0.31
212.949, 0.30
212.954, -0.77
212.956, -1.11
213.051, -0.56
213.052, -0.33
213.055, 0.30
213.149, 0.36
213.255, 0.38
213.349, 0.25
213.352, -0.38
213.353, -0.77
213.455, 0.31
213.549, 0.34
213.553, -0.76
213.556, -1.11
213.655, 0.30
213.749, 0.22
213.752, -0.33
213.753, -0.71
213.755, -0.92
213.756, -1.07
213.850, -0.61
213.852, -0.30
213.855, 0.30
213.949, 0.25
213.954, -0.98
213.956, -1.11
214.050, -0.51
214.052, -0.27
214.054, 0.27
214.149, 0.31
214.152, -0.39
214.154, -0.81
214.251, -0.49
214.251, -0.40
214.255, 0.33
214.349, 0.27
214.352, -0.40
214.355, -1.08
214.454, 0.24
214.549, 0.29
214.553, -0.64
214.555, -1.01
214.655, 0.31
214.749, 0.25
214.755, -1.00
214.755, -1.06
214.855, 0.31
214.949, 0.28
214.952, -0.31
214.953, -0.74
215.051, -0.51
215.051, -0.39
215.055, 0.29
215.149, 0.24
215.153, -0.44
215.155, -1.07
215.255, 0.31
215.349, 0.27
215.352, -0.43
215.354, -1.03
215.455, 0.34
215.549, 0.30
215.554, -0.68
215.555, -0.99
215.655, 0.30
215.749, 0.24
215.752, -0.40
215.753, -0.63
215.755, -0.87
215.756, -1.10
215.850, -0.57
215.852, -0.28
215.855, 0.29
215.949, 0.27
216.055, 0.29
216.149, 0.26
216.152, -0.34
216.155, -1.07
216.250, -0.58
216.252, -0.30
216.255, 0.29
216.349, 0.31
216.352, -0.40
216.354, -0.82
216.355, -0.98
216.355, -1.07
216.455, 0.28
216.549, 0.22
216.553, -0.75
216.554, -1.01
216.654, 0.24
216.749, 0.31
216.855, 0.32
216.949, 0.25
216.953, -0.50
216.955, -1.03
217.055, 0.29
217.149, 0.29
217.153, -0.71
217.155, -1.06
217.255, 0.30
217.349, 0.25
217.352, -0.40
217.353, -0.61
217.455, 0.36
217.549, 0.25
217.655, 0.29
217.749, 0.30
217.854, 0.28
217.949, 0.30
217.953, -0.78
217.956, -1.08
218.054, 0.25
218.149, 0.31
218.155, -0.90
218.156, -1.09
218.255, 0.31
218.349, 0.24
218.454, 0.25
218.549, 0.33
218.554, -0.80
218.555, -1.03
218.655, 0.31
218.749, 0.27
218.753, -0.66
218.755, -0.94
218.855, 0.31
218.949, 0.27
218.955, -0.94
218.955, -1.06
219.055, 0.28
219.149, 0.29
219.152, -0.26
219.152, -0.31
219.255, 0.32
219.349, 0.26
219.454, 0.27
219.549, 0.30
219.553, -0.64
219.555, -0.97
219.655, 0.33
219.749, 0.24
219.752, -0.34
219.756, -1.08
219.854, 0.20
219.949, 0.27
220.054, 0.25
220.149, 0.28
220.154, -0.62
220.154, -0.90
220.254, 0.27
220.349, 0.24
220.454, 0.23
220.549, 0.28
220.552, -0.25
220.552, -0.33
220.654, 0.28
220.749, 0.26
220.752, -0.42
220.754, -0.66
220.850, -0.56
220.852, -0.32
220.855, 0.29
220.949, 0.22
220.952, -0.39
220.955, -1.08
221.054, 0.27
221.149, 0.29
221.155, -0.88
221.156, -1.10
221.254, 0.27
221.349, 0.25
221.354, -0.76
221.356, -1.11
221.451, -0.51
221.452, -0.31
221.455, 0.30
221.549, 0.27
221.555, -0.90
221.556, -1.11
221.654, 0.24
221.749, 0.27
221.753, -0.58
221.755, -1.10
221.850, -0.56
221.852, -0.31
221.855, 0.29
221.949, 0.23
222.050, -0.57
222.052, -0.29
222.054, 0.24
222.149, 0.22
222.251, -0.53
222.252, -0.31
222.254, 0.25
222.349, 0.30
222.454, 0.25
222.549, 0.27
222.555, -0.95
222.555, -1.05
222.654, 0.25
222.749, 0.25
222.752, -0.41
222.756, -1.09
222.854, 0.25
222.949, 0.26
223.051, -0.46
223.051, -0.30
223.055, 0.29
223.149, 0.26
223.254, 0.28
223.349, 0.23
223.450, -0.56
223.452, -0.29
223.454, 0.24
223.549, 0.35
223.553, -0.68
223.556, -1.07
223.651, -0.54
223.652, -0.32
223.655, 0.31
223.749, 0.31
223.855, 0.29
223.949, 0.23
223.952, -0.40
223.954, -0.91
224.054, 0.26
224.149, 0.30
224.153, -0.68
224.156, -1.12
224.254, 0.28
224.349, 0.30
224.352, -0.44
224.355, -0.94
224.455, 0.29
224.549, 0.23
224.555, -0.90
224.556, -1.08
224.651, -0.52
224.651, -0.35
224.655, 0.29
224.749, 0.27
224.752, -0.38
224.756, -1.10
224.850, -0.56
224.852, -0.30
224.855, 0.28
224.949, 0.27
224.952, -0.46
224.953, -0.63
225.054, 0.24
225.149, 0.25
225.251, -0.53
225.252, -0.30
225.255, 0.28
225.349, 0.20
225.353, -0.66
225.356, -1.11
225.454, 0.25
225.549, 0.27
225.552, -0.39
225.555, -1.01
225.655, 0.29
225.749, 0.24
225.752, -0.38
225.753, -0.75
225.755, -0.99
225.755, -1.03
225.854, 0.24
225.949, 0.23
225.952, -0.36
225.953, -0.67
225.954, -0.93
225.956, -1.09
226.051, -0.52
226.051, -0.39
226.054, 0.26
226.149, 0.29
226.152, -0.35
226.155, -1.01
226.255, 0.28
226.349, 0.28
226.454, 0.22
226.549, 0.24
226.647, -1.21
226.647, -1.19
226.654, 0.24
226.749, 0.30
226.854, 0.25
226.949, 0.26
226.953, -0.65
226.955, -1.02
227.054, 0.21
227.149, 0.20
227.155, -0.91
227.156, -1.07
227.254, 0.25
227.349, 0.28
227.454, 0.23
227.549, 0.26
227.552, -0.35
227.553, -0.59
227.654, 0.20
227.749, 0.24
227.753, -0.47
227.756, -1.11
227.854, 0.28
227.949, 0.31
228.054, 0.23
228.149, 0.23
228.254, 0.22
228.349, 0.27
228.352, -0.41
228.354, -0.67
228.454, 0.23
228.549, 0.27
228.552, -0.34
228.553, -0.56
228.654, 0.24
228.749, 0.22
228.753, -0.73
228.755, -0.96
228.854, 0.24
228.949, 0.28
228.955, -1.12
228.955, -1.12
229.054, 0.27
229.149, 0.26
229.254, 0.24
229.349, 0.28
229.353, -0.72
229.355, -0.98
229.450, -0.52
229.452, -0.28
229.455, 0.29
229.549, 0.29
229.555, -0.97
229.555, -1.06
229.654, 0.26
229.749, 0.24
229.753, -0.68
229.756, -1.15
229.855, 0.33
229.949, 0.28
229.952, -0.37
229.953, -0.57
230.050, -0.50
230.052, -0.28
230.054, 0.27
230.149, 0.23
230.250, -0.52
230.252, -0.30
230.255, 0.29
230.349, 0.28
230.355, -0.88
230.356, -1.09
230.455, 0.28
230.549, 0.22
230.552, -0.39
230.553, -0.66
230.555, -1.04
230.555, -1.08
230.655, 0.30
230.749, 0.30
230.753, -0.73
230.756, -1.08
230.854, 0.27
230.949, 0.20
230.953, -0.69
230.955, -1.08
231.054, 0.27
231.149, 0.22
231.255, 0.32
231.349, 0.25
231.353, -0.74
231.354, -1.05
231.454, 0.26
231.549, 0.23
231.552, -0.37
231.553, -0.56
231.655, 0.30
231.749, 0.21
231.752, -0.37
231.753, -0.65
231.755, -0.89
231.756, -1.07
231.848, -1.03
231.848, -0.99
231.851, -0.52
231.851, -0.38
231.855, 0.28
231.949, 0.21
231.953, -0.71
231.955, -1.02
232.054, 0.22
232.149, 0.26
232.153, -0.65
232.155, -1.03
232.251, -0.47
232.252, -0.30
232.254, 0.22
232.349, 0.21
232.352, -0.38
232.355, -1.12
232.454, 0.26
232.549, 0.27
232.654, 0.26
232.749, 0.18
232.753, -0.68
232.755, -1.00
232.854, 0.27
232.949, 0.21
232.955, -0.91
232.956, -1.09
233.051, -0.52
233.052, -0.30
233.055, 0.29
233.150, 0.16
233.155, -0.90
233.156, -1.10
233.254, 0.27
233.349, 0.20
233.352, -0.36
233.354, -0.98
233.454, 0.22
233.549, 0.18
233.650, -0.51
233.652, -0.29
233.654, 0.21
233.749, 0.19
233.848, -0.97
233.848, -0.95
233.854, 0.23
233.949, 0.19
233.952, -0.36
233.955, -1.02
234.054, 0.26
234.149, 0.22
234.250, -0.48
234.252, -0.27
234.254, 0.25
234.349, 0.22
234.353, -0.48
234.353, -0.48
234.449, -0.85
234.451, -0.60
234.454, 0.27
234.549, 0.21
234.555, -0.85
234.556, -1.11
234.651, -0.53
234.652, -0.30
234.654, 0.25
234.749, 0.27
234.754, -0.93
234.756, -1.11
234.850, -0.49
234.852, -0.29
234.854, 0.20
234.949, 0.19
234.952, -0.36
234.953, -0.70
234.955, -0.92
234.956, -1.10
235.049, -0.77
235.051, -0.57
235.055, 0.28
235.149, 0.19
235.155, -0.94
235.155, -1.03
235.255, 0.30
235.349, 0.21
235.353, -0.45
235.353, -0.53
235.454, 0.25
235.549, 0.24
235.552, -0.39
235.554, -0.99
235.654, 0.26
235.749, 0.28
235.752, -0.38
235.755, -1.02
235.850, -0.52
235.852, -0.28
235.854, 0.25
235.949, 0.26
235.955, -0.91
235.956, -1.09
236.054, 0.25
236.149, 0.28
236.152, -0.39
236.153, -0.58
236.255, 0.30
236.349, 0.23
236.354, -0.85
236.354, -0.94
236.455, 0.32
236.549, 0.21
236.553, -0.64
236.556, -1.08
236.654, 0.17
236.749, 0.17
236.753, -0.49
236.753, -0.57
236.755, -0.97
236.755, -1.06
236.855, 0.30
236.949, 0.26
237.048, -1.01
237.048, -0.97
237.055, 0.34
237.149, 0.22
237.153, -0.72
237.155, -1.04
237.250, -0.53
237.252, -0.29
237.255, 0.34
237.349, 0.23
237.352, -0.38
237.355, -1.02
237.455, 0.37
237.549, 0.20
237.552, -0.38
237.553, -0.59
237.654, 0.25
237.750, 0.15
237.755, -0.92
237.755, -1.06
237.855, 0.32
237.950, 0.16
238.054, 0.26
238.149, 0.30
238.154, -0.71
238.154, -0.82
238.249, -0.75
238.251, -0.55
238.255, 0.37
238.349, 0.27
238.352, -0.39
238.353, -0.71
238.355, -0.88
238.356, -1.10
238.455, 0.39
238.549, 0.21
238.552, -0.38
238.555, -1.07
238.650, -0.50
238.652, -0.27
238.654, 0.17
238.749, 0.29
238.752, -0.35
238.755, -1.03
238.854, 0.22
238.949, 0.20
238.953, -0.40
238.953, -0.53
239.054, 0.26
239.149, 0.17
239.153, -0.58
239.155, -0.92
239.254, 0.26
239.350, 0.07
239.454, 0.18
239.550, 0.14
239.654, 0.23
239.750, 0.13
239.754, -0.82
239.754, -0.99
239.851, -0.50
239.852, -0.31
239.854, 0.22
239.949, 0.18
239.952, -0.34
239.953, -0.57
239.955, -0.90
239.956, -1.09
240.051, -0.49
240.052, -0.32
240.054, 0.24
240.149, 0.26
240.254, 0.27
240.349, 0.17
240.352, -0.41
240.353, -0.58
240.454, 0.16
240.549, 0.23
240.552, -0.41
240.554, -0.70
240.554, -0.83
240.555, -1.08
240.650, -0.57
240.652, -0.29
240.654, 0.27
240.750, 0.15
240.755, -1.09
240.755, -1.09
240.854, 0.27
240.949, 0.21
240.952, -0.37
240.954, -0.72
240.955, -0.93
240.956, -1.07
241.050, -0.51
241.052, -0.30
241.054, 0.22
241.150, 0.13
241.154, -0.81
241.155, -1.03
241.254, 0.25
241.349, 0.28
241.455, 0.29
241.549, 0.17
241.553, -0.47
241.553, -0.58
241.555, -0.91
241.556, -1.10
241.650, -0.55
241.652, -0.29
241.654, 0.23
241.749, 0.18
241.752, -0.36
241.754, -1.00
241.854, 0.25
241.949, 0.20
241.953, -0.80
241.955, -1.04
242.051, -0.55
242.052, -0.32
242.054, 0.23
242.149, 0.21
242.254, 0.27
242.349, 0.17
242.454, 0.26
242.549, 0.17
242.654, 0.27
242.749, 0.18
242.752, -0.38
242.754, -0.70
242.854, 0.27
242.950, 0.15
242.954, -0.93
242.956, -1.10
243.055, 0.29
243.149, 0.17
243.153, -0.71
243.155, -1.03
243.254, 0.24
243.350, 0.16
243.354, -0.92
243.355, -1.05
243.454, 0.22
243.550, 0.17
243.649, -0.68
243.650, -0.53
243.654, 0.21
243.750, 0.14
243.754, -0.74
243.754, -0.76
243.850, -0.64
243.851, -0.46
243.854, 0.26
243.950, 0.16
243.954, -0.92
243.954, -1.02
244.054, 0.22
244.149, 0.27
244.154, -0.79
244.156, -1.09
244.254, 0.24
244.350, 0.15
244.450, -0.66
244.452, -0.30
244.454, 0.23
244.550, 0.16
244.553, -0.60
244.555, -1.03
244.650, -0.47
244.652, -0.26
244.654, 0.15
244.750, 0.09
244.753, -0.42
244.753, -0.59
244.755, -1.08
244.755, -1.13
244.854, 0.25
244.950, 0.11
245.054, 0.24
245.150, 0.04
245.152, -0.37
245.155, -1.06
245.250, -0.51
245.252, -0.25
245.254, 0.25
245.350, 0.15
245.353, -0.57
245.354, -0.97
245.454, 0.18
245.549, 0.18
245.654, 0.20
245.749, 0.18
245.755, -0.90
245.756, -1.11
245.854, 0.25
245.949, 0.22
245.955, -0.93
245.956, -1.10
246.051, -0.42
246.051, -0.33
246.054, 0.15
246.149, 0.20
246.152, -0.35
246.154, -0.95
246.250, -0.59
246.252, -0.25
246.254, 0.21
246.349, 0.26
246.349, 0.22
246.350, 0.06
246.353, -0.58
246.354, -0.96
246.450, -0.54
246.452, -0.32
246.454, 0.22
246.549, 0.26
246.654, 0.19
246.749, 0.24
246.752, -0.40
246.753, -0.58
246.854, 0.24
246.949, 0.25
246.953, -0.64
246.956, -1.10
247.050, -0.55
247.052, -0.25
247.054, 0.20
247.149, 0.24
247.152, -0.41
247.154, -0.92
247.254, 0.23
247.349, 0.27
247.352, -0.40
247.353, -0.54
247.454, 0.22
247.549, 0.23
247.654, 0.20
247.749, 0.27
247.749, 0.21
247.750, 0.05
247.752, -0.39
247.753, -0.62
247.755, -0.92
247.756, -1.10
247.854, 0.21
247.950, 0.07
247.953, -0.73
247.955, -1.02
248.054, 0.24
248.149, 0.18
248.154, -0.73
248.154, -0.80
248.254, 0.23
248.349, 0.23
248.454, 0.26
248.549, 0.18
248.552, -0.38
248.555, -0.98
248.654, 0.23
248.749, 0.20
248.753, -0.67
248.754, -0.90
248.850, -0.55
248.852, -0.25
248.854, 0.20
248.949, 0.27
248.952, -0.36
248.955, -0.98
249.054, 0.20
249.149, 0.20
249.152, -0.36
249.155, -0.93
249.254, 0.17
249.349, 0.20
249.353, -0.65
249.355, -1.02
249.454, 0.16
249.549, 0.24
249.554, -0.68
249.556, -1.08
249.654, 0.24
249.749, 0.19
249.854, 0.23
249.950, 0.14
249.953, -0.56
249.954, -0.91
250.054, 0.18
250.150, 0.07
250.153, -0.62
250.155, -0.89
250.254, 0.18
250.350, 0.05
250.454, 0.25
250.549, 0.17
250.553, -0.49
250.556, -1.09
250.654, 0.20
250.749, 0.19
250.753, -0.41
250.753, -0.50
250.755, -0.84
250.756, -1.10
250.854, 0.24
250.949, 0.20
250.952, -0.35
250.954, -0.87
251.054, 0.23
251.150, 0.14
251.254, 0.21
251.350, 0.14
251.353, -0.70
251.355, -0.87
251.451, -0.37
251.451, -0.35
251.454, 0.18
251.550, 0.12
251.553, -0.71
251.555, -1.05
251.651, -0.40
251.651, -0.33
251.654, 0.19
251.749, 0.18
251.755, -0.88
251.756, -1.10
251.851, -0.51
251.851, -0.36
251.854, 0.15
251.949, 0.19
251.955, -0.96
251.956, -1.10
252.054, 0.18
252.149, 0.22
252.154, -0.73
252.154, -0.94
252.254, 0.23
252.350, 0.15
252.451, -0.40
252.451, -0.35
252.454, 0.22
252.550, 0.13
252.554, -0.95
252.556, -1.09
252.650, -0.52
252.652, -0.32
252.654, 0.17
252.750, 0.05
252.752, -0.37
252.753, -0.61
252.755, -0.97
252.756, -1.07
252.850, -0.50
252.852, -0.26
252.854, 0.22
252.949, 0.20
252.952, -0.38
252.953, -0.60
252.955, -0.89
252.956, -1.10
253.054, 0.18
253.149, 0.18
253.153, -0.73
253.155, -1.06
253.250, -0.57
253.252, -0.32
253.254, 0.23
253.349, 0.19
253.353, -0.40
253.353, -0.55
253.454, 0.18
253.550, 0.06
253.554, -0.92
253.556, -1.08
253.650, -0.56
253.652, -0.27
253.654, 0.19
253.749, 0.18
253.854, 0.22
253.950, 0.15
254.050, -0.50
254.052, -0.27
254.054, 0.16
254.150, 0.15
254.254, 0.21
254.349, 0.19
254.352, -0.42
254.355, -0.87
254.454, 0.22
254.549, 0.18
254.553, -0.70
254.555, -1.01
254.650, -0.53
254.652, -0.25
254.654, 0.16
254.749, 0.20
254.752, -0.38
254.753, -0.59
254.755, -0.96
254.755, -1.07
254.854, 0.23
254.950, 0.16
254.954, -0.63
254.954, -0.87
255.054, 0.20
255.149, 0.28
255.153, -0.57
255.156, -1.10
255.254, 0.23
255.350, 0.16
255.355, -0.90
255.356, -1.09
255.451, -0.55
255.452, -0.31
255.454, 0.17
255.549, 0.28
255.650, -0.62
255.652, -0.24
255.654, 0.21
255.749, 0.20
255.752, -0.41
255.753, -0.57
255.850, -0.65
255.852, -0.27
255.854, 0.25
255.949, 0.22
255.955, -0.87
255.956, -1.07
256.054, 0.25
256.150, 0.16
256.154, -0.79
256.156, -1.09
256.254, 0.26
256.349, 0.24
256.354, -0.80
256.355, -1.01
256.454, 0.19
256.549, 0.17
256.554, -0.74
256.556, -1.10
256.654, 0.20
256.750, 0.15
256.754, -0.92
256.756, -1.09
256.854, 0.19
256.950, 0.14
256.953, -0.71
256.956, -1.09
257.054, 0.26
257.149, 0.20
257.153, -0.48
257.153, -0.55
257.250, -0.48
257.252, -0.27
257.254, 0.23
257.349, 0.17
257.353, -0.67
257.356, -1.07
257.454, 0.21
257.550, 0.13
257.553, -0.65
257.554, -0.91
257.654, 0.25
257.750, 0.06
257.854, 0.25
257.949, 0.17
257.953, -0.46
257.953, -0.57
257.954, -0.83
257.956, -1.09
258.054, 0.18
258.149, 0.17
258.152, -0.36
258.153, -0.58
258.250, -0.57
258.252, -0.30
258.254, 0.24
258.349, 0.16
258.352, -0.41
258.354, -0.63
258.354, -0.80
258.356, -1.09
258.454, 0.16
258.549, 0.17
258.654, 0.25
258.749, 0.20
258.753, -0.68
258.755, -1.05
258.850, -0.50
258.852, -0.24
258.854, 0.16
258.949, 0.20
258.954, -0.68
258.956, -1.08
259.051, -0.43
259.051, -0.31
259.054, 0.20
259.150, 0.16
259.251, -0.46
259.252, -0.28
259.254, 0.22
259.349, 0.19
259.454, 0.16
259.549, 0.24
259.552, -0.35
259.553, -0.58
259.654, 0.18
259.749, 0.18
259.753, -0.50
259.756, -1.10
259.851, -0.49
259.851, -0.30
259.854, 0.20
259.950, 0.16
260.051, -0.49
260.052, -0.31
260.054, 0.21
260.149, 0.17
260.153, -0.68
260.154, -0.94
260.254, 0.22
260.349, 0.20
260.355, -0.94
260.356, -1.09
260.454, 0.17
260.550, 0.16
260.650, -0.48
260.652, -0.28
260.654, 0.16
260.749, 0.22
260.851, -0.51
260.851, -0.35
260.854, 0.18
260.949, 0.22
261.051, -0.50
261.052, -0.26
261.054, 0.19
261.149, 0.27
261.254, 0.20
261.349, 0.18
261.354, -0.70
261.354, -0.88
261.454, 0.24
261.549, 0.18
261.552, -0.35
261.555, -1.01
261.654, 0.25
261.749, 0.21
261.753, -0.60
261.756, -1.08
261.854, 0.17
261.949, 0.25
261.955, -0.84
261.956, -1.09
262.054, 0.15
262.149, 0.21
262.254, 0.19
262.349, 0.21
262.352, -0.38
262.353, -0.54
262.454, 0.17
262.549, 0.22
262.553, -0.55
262.555, -0.95
262.651, -0.46
262.652, -0.28
262.654, 0.26
262.749, 0.21
262.752, -0.35
262.756, -1.13
262.854, 0.23
262.949, 0.18
263.054, 0.15
263.150, 0.16
263.152, -0.37
263.154, -0.96
263.254, 0.20
263.349, 0.21
263.354, -0.62
263.356, -1.11
263.451, -0.53
263.452, -0.29
263.454, 0.20
263.549, 0.21
263.654, 0.23
263.750, 0.16
263.755, -1.07
263.755, -1.08
263.854, 0.24
263.949, 0.20
264.054, 0.19
264.149, 0.18
264.154, -0.67
264.154, -0.88
264.254, 0.20
264.349, 0.19
264.455, 0.29
264.549, 0.20
264.552, -0.41
264.554, -0.90
264.654, 0.19
264.749, 0.29
264.752, -0.40
264.753, -0.53
264.850, -0.57
264.852, -0.28
264.854, 0.21
264.949, 0.20
264.953, -0.68
264.954, -0.98
265.051, -0.51
265.052, -0.34
265.054, 0.27
265.149, 0.19
265.152, -0.35
265.153, -0.55
265.254, 0.24
265.349, 0.24
265.353, -0.60
265.355, -0.93
265.454, 0.21
265.549, 0.20
265.654, 0.25
265.749, 0.23
265.755, -1.10
265.755, -1.13
265.854, 0.26
265.949, 0.27
265.954, -0.82
265.954, -0.99
266.054, 0.18
266.149, 0.24
266.152, -0.37
266.154, -0.74
266.254, 0.26
266.349, 0.22
266.454, 0.27
266.549, 0.28
266.654, 0.23
266.749, 0.23
266.752, -0.34
266.754, -0.98
266.854, 0.27
266.949, 0.20
267.054, 0.25
267.149, 0.28
267.154, -0.73
267.154, -0.81
267.254, 0.25
267.349, 0.22
267.352, -0.35
267.353, -0.58
267.450, -0.58
267.452, -0.27
267.454, 0.26
267.549, 0.23
267.552, -0.39
267.555, -0.98
267.650, -0.53
267.652, -0.28
267.654, 0.26
267.749, 0.27
267.753, -0.74
267.756, -1.10
267.854, 0.22
267.949, 0.23
267.953, -0.74
267.955, -1.12
268.051, -0.51
268.051, -0.44
268.055, 0.30
268.149, 0.22
268.152, -0.42
268.153, -0.70
268.254, 0.27
268.349, 0.27
268.454, 0.25
268.549, 0.25
268.552, -0.42
268.553, -0.62
268.651, -0.52
268.652, -0.34
268.655, 0.30
268.749, 0.23
268.752, -0.36
268.755, -1.07
268.855, 0.32
268.949, 0.29
268.952, -0.39
268.953, -0.51
268.955, -0.94
268.956, -1.09
269.054, 0.25
269.149, 0.23
269.152, -0.37
269.153, -0.54
269.251, -0.47
269.251, -0.39
269.254, 0.27
269.349, 0.20
269.352, -0.37
269.353, -0.60
269.355, -1.00
269.355, -1.03
269.450, -0.59
269.452, -0.28
269.455, 0.28
269.549, 0.30
269.552, -0.42
269.554, -0.99
269.654, 0.27
269.749, 0.26
269.752, -0.47
269.753, -0.71
269.755, -0.97
269.756, -1.10
269.850, -0.53
269.852, -0.29
269.854, 0.27
269.949, 0.25
269.952, -0.36
269.953, -0.68
270.055, 0.31
270.149, 0.26
270.154, -0.66
270.156, -1.10
270.251, -0.51
270.251, -0.34
270.255, 0.30
270.349, 0.28
270.353, -0.55
270.356, -1.09
270.451, -0.50
270.452, -0.29
270.455, 0.30
270.549, 0.29
270.553, -0.54
270.556, -1.10
270.654, 0.24
270.749, 0.28
270.854, 0.27
270.949, 0.24
271.054, 0.27
271.149, 0.25
271.152, -0.39
271.153, -0.65
271.255, 0.28
271.349, 0.27
271.353, -0.73
271.355, -1.07
271.450, -0.51
271.452, -0.31
271.455, 0.31
271.549, 0.26
271.554, -0.79
271.554, -0.87
271.655, 0.29
271.749, 0.30
271.752, -0.32
271.756, -1.11
271.851, -0.54
271.852, -0.28
271.855, 0.29
271.949, 0.25
271.954, -0.64
271.955, -1.11
272.055, 0.29
272.149, 0.29
272.155, -0.84
272.156, -1.10
272.251, -0.53
272.252, -0.29
272.255, 0.31
272.349, 0.33
272.354, -0.65
272.355, -1.05
272.451, -0.51
272.451, -0.33
272.454, 0.26
272.549, 0.26
272.553, -0.61
272.555, -0.92
272.654, 0.25
272.749, 0.20
272.753, -0.55
272.755, -1.05
272.854, 0.25
272.949, 0.24
272.953, -0.65
272.954, -0.95
273.054, 0.27
273.149, 0.28
273.250, -0.51
273.252, -0.31
273.254, 0.21
273.349, 0.26
273.352, -0.37
273.353, -0.75
273.450, -0.58
273.452, -0.28
273.454, 0.17
273.549, 0.29
273.553, -0.68
273.555, -0.91
273.650, -0.62
273.652, -0.28
273.654, 0.22
273.749, 0.30
273.752, -0.42
273.754, -0.79
273.854, 0.21
273.949, 0.28
273.953, -0.55
273.955, -0.96
274.051, -0.50
274.051, -0.35
274.054, 0.23
274.149, 0.29
274.153, -0.52
274.154, -0.98
274.250, -0.57
274.252, -0.32
274.254, 0.28
274.349, 0.28
274.355, -0.92
274.355, -1.08
274.451, -0.50
274.451, -0.35
274.454, 0.25
274.549, 0.27
274.654, 0.20
274.749, 0.24
274.854, 0.22
274.949, 0.29
274.952, -0.43
274.953, -0.65
275.054, 0.17
275.149, 0.27
275.152, -0.38
275.153, -0.77
275.155, -0.98
275.155, -1.05
275.254, 0.25
275.349, 0.20
275.454, 0.27
275.549, 0.22
275.552, -0.29
275.553, -0.76
275.555, -0.97
275.555, -1.07
275.654, 0.26
275.749, 0.23
275.752, -0.38
275.753, -0.60
275.854, 0.17
275.949, 0.28
275.953, -0.54
275.953, -0.76
276.050, -0.57
276.052, -0.26
276.054, 0.16
276.149, 0.28
276.153, -0.68
276.156, -1.13
276.250, -0.52
276.252, -0.30
276.254, 0.22
276.349, 0.22
276.352, -0.35
276.355, -0.92
276.454, 0.25
276.549, 0.20
276.654, 0.19
276.749, 0.21
276.854, 0.18
276.949, 0.26
276.952, -0.39
276.955, -1.04
277.054, 0.17
277.149, 0.24
277.152, -0.42
277.154, -0.93
277.251, -0.50
277.252, -0.28
277.254, 0.19
277.349, 0.24
277.354, -0.97
277.355, -1.01
277.454, 0.20
277.549, 0.21
277.553, -0.61
277.556, -1.16
277.654, 0.21
277.749, 0.18
277.753, -0.42
277.754, -0.73
277.854, 0.18
277.949, 0.25
277.954, -0.76
277.956, -1.15
278.050, -0.58
278.052, -0.29
278.054, 0.16
278.149, 0.28
278.152, -0.40
278.154, -0.83
278.254, 0.18
278.349, 0.19
278.353, -0.65
278.355, -1.01
278.450, -0.56
278.452, -0.27
278.454, 0.20
278.549, 0.20
278.552, -0.29
278.552, -0.33
278.555, -0.93
278.555, -1.02
278.654, 0.21
278.749, 0.20
278.854, 0.26
278.949, 0.20
278.952, -0.40
278.953, -0.53
278.954, -0.84
278.956, -1.13
279.050, -0.56
279.052, -0.29
279.054, 0.19
279.149, 0.24
279.251, -0.53
279.252, -0.30
279.254, 0.18
279.349, 0.28
279.454, 0.22
279.549, 0.26
279.650, -0.47
279.652, -0.27
279.654, 0.21
279.749, 0.18
279.754, -0.87
279.754, -0.92
279.851, -0.48
279.851, -0.32
279.854, 0.16
279.949, 0.17
279.953, -0.46
279.953, -0.49
280.054, 0.18
280.149, 0.21
280.152, -0.39
280.153, -0.60
280.155, -0.97
280.156, -1.12
280.254, 0.22
280.349, 0.25
280.454, 0.20
280.549, 0.21
280.554, -0.70
280.554, -0.74
280.654, 0.21
280.749, 0.23
280.854, 0.21
280.949, 0.27
280.955, -0.86
280.956, -1.10
281.054, 0.17
281.149, 0.25
281.152, -0.42
281.153, -0.60
281.155, -1.03
281.155, -1.05
281.251, -0.57
281.252, -0.32
281.254, 0.15
281.349, 0.24
281.354, -0.76
281.355, -1.06
281.454, 0.18
281.549, 0.30
281.553, -0.60
281.554, -0.97
281.654, 0.18
281.749, 0.20
281.753, -0.62
281.755, -0.96
281.851, -0.51
281.851, -0.35
281.854, 0.22
281.949, 0.22
281.953, -0.62
281.955, -1.00
282.051, -0.50
282.052, -0.29
282.054, 0.21
282.149, 0.23
282.152, -0.37
282.156, -1.06
282.254, 0.22
282.349, 0.20
282.352, -0.38
282.354, -0.88
282.454, 0.17
282.549, 0.23
282.555, -1.02
282.556, -1.10
282.654, 0.25
282.749, 0.23
282.854, 0.22
282.949, 0.21
283.054, 0.27
283.149, 0.24
283.254, 0.18
283.349, 0.19
283.353, -0.78
283.355, -1.01
283.454, 0.20
283.549, 0.17
283.553, -0.69
283.555, -0.92
283.654, 0.18
283.749, 0.21
283.755, -0.95
283.756, -1.15
283.854, 0.21
283.950, 0.15
284.050, -0.51
284.052, -0.29
284.054, 0.20
284.149, 0.17
284.154, -0.67
284.155, -0.91
284.254, 0.21
284.350, 0.16
284.354, -0.82
284.355, -1.07
284.454, 0.23
284.549, 0.19
284.654, 0.18
284.749, 0.18
284.753, -0.66
284.755, -0.96
284.851, -0.55
284.852, -0.32
284.854, 0.23
284.949, 0.21
284.953, -0.67
284.956, -1.10
285.054, 0.23
285.149, 0.21
285.251, -0.53
285.251, -0.34
285.254, 0.21
285.349, 0.28
285.450, -0.50
285.452, -0.30
285.454, 0.21
285.549, 0.20
285.552, -0.39
285.553, -0.60
285.555, -0.97
285.556, -1.17
285.651, -0.42
285.651, -0.36
285.654, 0.20
285.749, 0.19
285.753, -0.62
285.756, -1.09
285.854, 0.21
285.949, 0.19
285.955, -0.83
285.956, -1.05
286.050, -0.54
286.052, -0.28
286.054, 0.17
286.149, 0.17
286.152, -0.37
286.153, -0.61
286.254, 0.24
286.350, 0.16
286.354, -0.83
286.355, -1.04
286.454, 0.25
286.550, 0.17
286.552, -0.43
286.553, -0.58
286.654, 0.19
286.749, 0.17
286.752, -0.37
286.753, -0.60
286.755, -0.92
286.756, -1.13
286.851, -0.50
286.852, -0.29
286.854, 0.21
286.950, 0.15
287.054, 0.15
287.150, 0.13
287.152, -0.40
287.156, -1.12
287.251, -0.44
287.251, -0.37
287.254, 0.15
287.350, 0.13
287.353, -0.48
287.353, -0.52
287.355, -0.98
287.355, -1.06
287.454, 0.14
287.549, 0.26
287.552, -0.38
287.554, -0.63
287.650, -0.54
287.652, -0.26
287.654, 0.21
287.749, 0.20
287.752, -0.38
287.755, -1.01
287.854, 0.20
287.949, 0.18
287.955, -0.99
287.955, -1.06
288.051, -0.50
288.051, -0.38
288.054, 0.24
288.149, 0.17
288.251, -0.46
288.251, -0.39
288.254, 0.21
288.350, 0.17
288.454, 0.20
288.550, 0.14
288.553, -0.43
288.554, -0.90
288.654, 0.18
288.750, 0.14
288.752, -0.39
288.753, -0.60
288.854, 0.17
288.950, 0.14
289.054, 0.22
289.150, 0.10
289.153, -0.56
289.156, -1.10
289.254, 0.21
289.350, 0.15
289.451, -0.43
289.451, -0.34
289.454, 0.20
289.550, 0.15
289.553, -0.67
289.555, -0.97
289.654, 0.18
289.750, 0.12
289.755, -0.86
289.756, -1.07
289.851, -0.46
289.852, -0.29
289.854, 0.16
289.950, 0.10
289.953, -0.67
289.956, -1.10
290.054, 0.21
290.150, 0.12
290.153, -0.61
290.154, -0.95
290.254, 0.15
290.349, 0.23
290.352, -0.38
290.354, -0.84
290.454, 0.19
290.549, 0.18
290.554, -0.78
290.556, -1.08
290.654, 0.21
290.750, 0.15
290.851, -0.44
290.851, -0.36
290.854, 0.15
290.949, 0.17
290.952, -0.38
290.953, -0.64
291.054, 0.12
291.150, 0.08
291.153, -0.63
291.155, -0.85
291.254, 0.14
291.350, 0.09
291.353, -0.51
291.354, -0.90
291.451, -0.51
291.452, -0.30
291.454, 0.14
291.550, 0.08
291.555, -0.90
291.556, -1.09
291.650, -0.60
291.650, -0.55
291.654, 0.19
291.750, 0.14
291.754, -0.76
291.756, -1.09
291.854, 0.20
291.949, 0.17
291.955, -0.94
291.956, -1.10
292.051, -0.41
292.051, -0.35
292.054, 0.18
292.150, 0.13
292.152, -0.43
292.154, -0.64
292.249, -0.81
292.251, -0.49
292.254, 0.09
292.350, 0.08
292.353, -0.68
292.355, -1.04
292.454, 0.15
292.550, 0.13
292.654, 0.19
292.750, 0.10
292.854, 0.20
292.950, 0.13
292.953, -0.55
292.953, -0.56
293.054, 0.21
293.150, 0.15
293.152, -0.40
293.154, -0.82
293.251, -0.42
293.251, -0.31
293.254, 0.14
293.350, 0.11
293.354, -0.78
293.356, -1.10
293.454, 0.13
293.550, 0.13
293.654, 0.13
293.750, 0.14
293.752, -0.45
293.753, -0.64
293.854, 0.19
293.949, 0.19
294.054, 0.21
294.150, 0.14
294.154, -0.69
294.154, -0.75
294.254, 0.21
294.350, 0.16
294.454, 0.10
294.550, 0.04
294.651, -0.48
294.651, -0.34
294.654, 0.16
294.750, 0.07
294.752, -0.39
294.753, -0.61
294.850, -0.50
294.852, -0.29
294.854, 0.14
294.950, 0.16
295.051, -0.48
295.051, -0.30
295.054, 0.19
295.150, 0.15
295.153, -0.58
295.153, -0.58
295.254, 0.09
295.350, 0.10
295.353, -0.63
295.355, -0.93
295.454, 0.14
295.550, 0.10
295.553, -0.51
295.555, -1.02
295.654, 0.14
295.749, 0.20
295.851, -0.51
295.852, -0.28
295.854, 0.18
295.950, 0.11
295.954, -0.64
295.954, -0.79
296.054, 0.14
296.150, 0.12
296.153, -0.64
296.154, -0.88
296.254, 0.19
296.350, 0.11
296.354, -0.65
296.354, -0.77
