time (sec), voltage (V)
0.052, -0.27
0.052, -0.15
0.151, -0.26
0.152, -0.44
0.155, -1.01
0.156, -1.12
0.249, -0.66
0.250, -0.60
0.252, -0.33
0.253, -0.13
0.352, -0.54
0.354, -0.80
0.354, -0.90
0.356, -1.12
0.649, -0.85
0.652, -0.29
0.752, -0.40
0.753, -0.62
0.954, -0.95
0.956, -1.11
1.049, -0.79
1.051, -0.57
1.152, -0.34
1.156, -1.10
1.353, -0.73
1.355, -1.03
1.449, -0.79
1.453, -0.09
1.555, -0.98
1.555, -1.10
1.651, -0.57
1.652, -0.22
1.752, -0.45
1.755, -1.05
1.954, -1.05
1.956, -1.13
2.050, -0.68
2.050, -0.60
2.152, -0.40
2.154, -0.67
2.155, -0.91
2.156, -1.12
2.252, -0.34
2.252, -0.18
2.351, -0.19
2.353, -0.56
2.649, -0.70
2.651, -0.45
2.752, -0.27
2.753, -0.63
2.851, -0.57
2.853, -0.14
3.049, -0.81
3.051, -0.52
3.052, -0.34
3.052, -0.23
3.152, -0.47
3.154, -0.66
3.155, -0.97
3.155, -1.10
3.252, -0.32
3.253, -0.10
3.353, -0.59
3.353, -0.74
3.355, -1.01
3.356, -1.13
3.451, -0.65
3.452, -0.16
3.551, -0.17
3.554, -0.95
3.649, -0.71
3.651, -0.54
3.652, -0.31
3.652, -0.21
3.751, -0.22
3.752, -0.49
3.849, -0.75
3.851, -0.53
3.952, -0.30
3.955, -1.00
4.049, -0.82
4.051, -0.43
4.151, -0.16
4.153, -0.61
4.155, -1.00
4.156, -1.11
4.249, -0.77
4.253, -0.12
4.351, -0.22
4.352, -0.52
4.355, -0.91
4.356, -1.12
4.553, -0.70
4.556, -1.10
4.751, -0.17
4.754, -0.89
4.754, -1.00
4.756, -1.12
4.849, -0.72
4.851, -0.61
4.952, -0.35
4.954, -0.80
4.955, -0.98
4.956, -1.13
5.049, -0.79
5.051, -0.66
5.052, -0.45
5.053, -0.13
5.250, -0.67
5.252, -0.29
5.353, -0.49
5.353, -0.59
5.355, -1.01
5.355, -1.03
5.449, -0.81
5.452, -0.34
5.649, -0.79
5.651, -0.73
5.755, -0.92
5.755, -1.04
5.849, -0.69
5.850, -0.59
5.852, -0.39
5.853, -0.16
5.951, -0.22
5.954, -0.80
6.126, 4.79
6.126, 4.65
6.128, 4.34
6.130, 4.04
6.153, -0.48
6.155, -1.04
6.251, -0.46
6.253, -0.12
6.260, 1.39
6.344, 1.32
6.355, -0.98
6.355, -1.06
6.459, 1.18
6.545, 0.94
6.553, -0.73
6.555, -1.07
6.650, -0.80
6.652, -0.36
6.657, 0.84
6.746, 0.78
6.751, -0.18
6.754, -0.90
6.850, -0.64
6.852, -0.34
6.858, 0.90
6.946, 0.88
6.951, -0.19
6.955, -1.02
7.051, -0.52
7.051, -0.39
7.057, 0.86
7.146, 0.88
7.151, -0.22
7.153, -0.65
7.155, -1.01
7.156, -1.11
7.251, -0.45
7.251, -0.40
7.258, 0.95
7.346, 0.86
7.352, -0.44
7.355, -1.01
7.451, -0.61
7.452, -0.33
7.457, 0.83
7.546, 0.91
7.553, -0.56
7.555, -1.01
7.649, -0.78
7.653, -0.11
7.657, 0.84
7.746, 0.89
7.751, -0.23
7.755, -1.06
7.857, 0.86
7.946, 0.77
8.058, 0.93
8.146, 0.78
8.151, -0.20
8.153, -0.44
8.155, -0.98
8.156, -1.08
8.251, -0.64
8.252, -0.18
8.258, 1.01
8.346, 0.92
8.354, -0.68
8.356, -1.10
8.457, 0.82
8.546, 0.83
8.551, -0.20
8.553, -0.46
8.649, -0.83
8.651, -0.68
8.658, 1.00
8.746, 0.93
8.753, -0.58
8.753, -0.66
8.849, -0.80
8.852, -0.25
8.857, 0.76
8.946, 0.76
8.953, -0.79
8.955, -1.07
9.049, -0.79
9.051, -0.62
9.057, 0.82
9.146, 0.80
9.152, -0.37
9.156, -1.10
9.250, -0.82
9.252, -0.35
9.257, 0.85
9.346, 0.89
9.353, -0.73
9.355, -1.01
9.452, -0.21
9.452, -0.18
9.457, 0.82
9.546, 0.81
9.649, -0.77
9.651, -0.73
9.658, 0.94
9.746, 0.89
9.850, -0.56
9.851, -0.44
9.857, 0.86
9.946, 0.87
9.951, -0.18
9.954, -1.04
10.050, -0.54
10.052, -0.33
10.058, 0.89
10.146, 0.87
10.154, -0.78
10.156, -1.11
10.258, 0.98
10.345, 0.98
10.352, -0.47
10.356, -1.10
10.457, 0.86
10.546, 0.88
10.553, -0.52
10.553, -0.72
10.651, -0.47
10.651, -0.41
10.658, 0.97
10.746, 0.87
10.755, -0.95
10.756, -1.11
10.849, -0.76
10.852, -0.36
10.858, 0.90
10.946, 0.85
10.952, -0.23
10.952, -0.34
10.954, -0.78
10.956, -1.10
11.057, 0.83
11.146, 0.89
11.152, -0.44
11.153, -0.76
11.155, -1.03
11.155, -1.06
11.250, -0.55
11.252, -0.32
11.258, 0.99
11.346, 0.83
11.355, -0.93
11.356, -1.08
11.458, 0.93
11.546, 0.91
11.555, -0.93
11.556, -1.09
11.652, -0.29
11.652, -0.17
11.657, 0.86
11.746, 0.92
11.754, -0.79
11.755, -0.98
11.849, -0.80
11.852, -0.30
11.858, 1.01
11.946, 0.79
11.952, -0.23
11.954, -0.85
12.058, 0.92
12.145, 0.97
12.151, -0.23
12.152, -0.47
12.258, 0.93
12.346, 0.92
12.351, -0.19
12.353, -0.78
12.355, -0.90
12.356, -1.11
12.458, 0.90
12.546, 0.81
12.551, -0.20
12.552, -0.43
12.649, -0.80
12.651, -0.69
12.651, -0.53
12.653, -0.11
12.658, 1.01
12.746, 0.89
12.755, -1.01
12.755, -1.08
12.858, 1.03
12.946, 0.92
12.952, -0.47
12.955, -1.04
13.050, -0.57
13.052, -0.32
13.058, 0.94
13.145, 1.01
13.258, 1.03
13.346, 0.90
13.351, -0.18
13.352, -0.41
13.458, 1.00
13.545, 1.03
13.554, -1.00
13.556, -1.16
13.650, -0.54
13.653, -0.09
13.658, 1.05
13.745, 1.05
13.751, -0.18
13.752, -0.46
13.858, 0.90
13.945, 1.09
13.953, -0.59
13.953, -0.72
13.955, -0.97
13.956, -1.16
14.050, -0.50
14.051, -0.38
14.058, 1.02
14.145, 0.95
14.153, -0.81
14.156, -1.14
14.250, -0.65
14.252, -0.16
14.258, 1.00
14.346, 0.92
14.352, -0.40
14.352, -0.43
14.354, -0.74
14.354, -0.94
14.458, 1.05
14.545, 0.95
14.552, -0.23
14.552, -0.36
14.553, -0.61
14.556, -1.17
14.659, 1.07
14.745, 1.06
14.751, -0.20
14.752, -0.54
14.849, -0.79
14.853, -0.10
14.858, 0.98
14.945, 0.94
14.952, -0.51
14.956, -1.13
15.050, -0.53
15.052, -0.33
15.058, 0.95
15.146, 0.91
15.151, -0.22
15.153, -0.77
15.154, -0.86
15.156, -1.15
15.259, 1.09
15.345, 0.96
15.351, -0.22
15.352, -0.49
15.353, -0.72
15.355, -0.97
15.450, -0.52
15.452, -0.32
15.458, 0.96
15.546, 0.92
15.555, -0.92
15.556, -1.10
15.658, 0.89
15.746, 0.81
15.751, -0.22
15.754, -0.91
15.858, 1.02
15.945, 1.08
15.954, -0.85
15.956, -1.17
16.052, -0.25
16.053, -0.08
16.058, 0.91
16.146, 0.93
16.155, -1.01
16.156, -1.17
16.258, 1.01
16.345, 1.00
16.351, -0.23
16.354, -0.83
16.355, -1.02
16.355, -1.06
16.458, 0.90
16.546, 0.87
16.553, -0.60
16.556, -1.17
16.652, -0.32
16.653, -0.14
16.659, 1.13
16.746, 0.83
16.859, 1.17
16.946, 0.94
16.951, -0.17
16.954, -1.01
17.050, -0.52
17.051, -0.34
17.058, 0.92
17.145, 1.08
17.151, -0.20
17.154, -0.78
17.154, -1.02
17.156, -1.18
17.251, -0.53
17.251, -0.46
17.258, 1.03
17.346, 0.81
17.353, -0.75
17.356, -1.13
17.449, -0.78
17.450, -0.72
17.459, 1.18
17.545, 0.95
17.552, -0.41
17.554, -0.81
17.658, 1.01
17.745, 1.06
17.753, -0.84
17.756, -1.11
17.858, 0.94
17.946, 0.93
17.952, -0.24
17.955, -1.02
18.052, -0.37
18.053, -0.11
18.058, 1.04
18.145, 1.03
18.151, -0.26
18.152, -0.45
18.154, -0.86
18.155, -1.00
18.259, 1.19
18.345, 1.09
18.353, -0.51
18.353, -0.52
18.355, -1.00
18.356, -1.16
18.451, -0.56
18.452, -0.34
18.458, 0.95
18.545, 1.01
18.553, -0.47
18.554, -0.96
18.649, -0.82
18.653, -0.11
18.658, 0.95
18.745, 1.11
18.751, -0.25
18.753, -0.85
18.851, -0.76
18.851, -0.50
18.858, 0.97
18.944, 1.25
18.945, 1.05
18.945, 1.03
18.953, -0.59
18.954, -0.92
19.052, -0.32
19.053, -0.12
19.059, 1.12
19.145, 1.11
19.146, 0.85
19.146, 0.84
19.151, -0.22
19.155, -1.17
19.258, 1.00
19.345, 0.96
19.353, -0.61
19.356, -1.12
19.450, -0.61
19.450, -0.59
19.458, 0.93
19.545, 1.10
19.551, -0.21
19.555, -1.02
19.658, 0.98
19.745, 1.00
19.751, -0.20
19.756, -1.11
19.851, -0.49
19.851, -0.36
19.859, 1.08
19.945, 1.02
19.951, -0.20
19.954, -0.96
20.050, -0.63
20.052, -0.36
20.058, 0.96
20.145, 1.02
20.151, -0.22
20.156, -1.11
20.258, 1.05
20.345, 1.07
20.353, -0.69
20.353, -0.81
20.449, -0.69
20.452, -0.39
20.458, 1.03
20.545, 0.95
20.553, -0.83
20.555, -1.02
20.649, -0.75
20.652, -0.35
20.659, 1.11
20.745, 1.11
20.753, -0.58
20.755, -1.06
20.852, -0.34
20.853, -0.15
20.858, 0.93
20.945, 1.03
20.953, -0.59
20.956, -1.08
21.050, -0.56
21.052, -0.33
21.058, 1.02
21.146, 0.93
21.151, -0.18
21.153, -0.82
21.155, -1.03
21.156, -1.10
21.249, -0.74
21.252, -0.28
21.259, 1.12
21.345, 1.02
21.458, 0.98
21.545, 1.09
21.551, -0.22
21.553, -0.50
21.649, -0.86
21.651, -0.44
21.659, 1.18
21.745, 0.99
21.752, -0.42
21.752, -0.46
21.754, -0.92
21.755, -0.98
21.859, 1.08
21.945, 1.01
21.953, -0.44
21.954, -0.95
22.052, -0.36
22.053, -0.11
22.059, 1.12
22.146, 0.82
22.151, -0.20
22.154, -0.92
22.258, 1.06
22.345, 0.96
22.353, -0.69
22.353, -0.81
22.459, 1.17
22.544, 1.14
22.551, -0.20
22.552, -0.47
22.554, -0.80
22.556, -1.07
22.650, -0.60
22.652, -0.33
22.659, 1.18
22.745, 1.09
22.752, -0.40
22.754, -0.98
22.850, -0.50
22.852, -0.29
22.859, 1.07
22.945, 1.11
22.953, -0.82
22.956, -1.09
23.052, -0.32
23.053, -0.09
23.059, 1.18
23.145, 0.97
23.153, -0.74
23.155, -1.06
23.259, 1.11
23.345, 1.00
23.351, -0.21
23.353, -0.68
23.452, -0.29
23.453, -0.13
23.459, 1.18
23.545, 1.12
23.552, -0.50
23.555, -1.12
23.649, -0.83
23.650, -0.77
23.652, -0.45
23.653, -0.10
23.658, 1.02
23.745, 1.02
23.751, -0.26
23.752, -0.47
23.756, -1.18
23.756, -1.18
23.858, 1.03
23.945, 1.07
23.951, -0.21
23.953, -0.92
23.955, -1.01
23.955, -1.06
24.049, -0.79
24.051, -0.68
24.058, 0.95
24.144, 1.16
24.155, -0.91
24.156, -1.12
24.259, 1.10
24.345, 1.10
24.354, -0.77
24.354, -0.95
24.450, -0.58
24.452, -0.14
24.458, 1.03
24.545, 1.10
24.551, -0.22
24.553, -0.46
24.553, -0.67
24.555, -1.00
24.650, -0.58
24.652, -0.24
24.659, 1.14
24.745, 1.05
24.752, -0.44
24.755, -0.99
24.858, 0.96
24.858, 1.02
24.859, 1.21
24.945, 0.99
24.951, -0.23
24.953, -0.48
24.954, -0.88
24.954, -1.08
24.956, -1.20
24.956, -1.21
25.051, -0.56
25.052, -0.14
25.059, 1.14
25.145, 0.99
25.155, -1.05
25.156, -1.21
25.250, -0.56
25.252, -0.35
25.259, 1.07
25.344, 1.24
25.351, -0.23
25.352, -0.51
25.353, -0.78
25.355, -1.00
25.451, -0.50
25.451, -0.41
25.459, 1.11
25.545, 1.06
25.552, -0.37
25.556, -1.06
25.652, -0.36
25.653, -0.10
25.658, 1.03
25.745, 0.99
25.751, -0.22
25.752, -0.45
25.754, -0.84
25.755, -1.13
25.850, -0.51
25.852, -0.32
25.858, 0.98
25.945, 1.13
25.955, -1.01
25.956, -1.12
26.059, 1.22
26.145, 0.99
26.151, -0.25
26.154, -1.08
26.249, -0.75
26.253, -0.11
26.258, 1.04
26.345, 1.04
26.352, -0.46
26.354, -0.92
26.355, -0.99
26.356, -1.09
26.459, 1.22
26.545, 1.08
26.551, -0.23
26.552, -0.46
26.554, -0.75
26.556, -1.12
26.659, 1.08
26.746, 0.92
26.752, -0.30
26.754, -0.81
26.859, 1.11
26.945, 1.13
26.952, -0.21
26.952, -0.33
26.954, -0.95
26.954, -1.01
27.050, -0.53
27.052, -0.28
27.058, 1.06
27.145, 1.07
27.251, -0.66
27.252, -0.43
27.258, 1.05
27.344, 1.17
27.459, 1.18
27.545, 1.00
27.650, -0.50
27.652, -0.23
27.659, 1.08
27.745, 1.11
27.751, -0.19
27.752, -0.47
27.754, -1.01
27.755, -1.14
27.852, -0.34
27.853, -0.12
27.858, 0.89
27.945, 1.06
27.951, -0.23
27.956, -1.17
28.059, 1.08
28.145, 1.07
28.151, -0.18
28.152, -0.40
28.258, 0.94
28.345, 1.03
28.353, -0.90
28.355, -1.06
28.452, -0.27
28.452, -0.20
28.459, 1.11
28.545, 1.11
28.650, -0.63
28.652, -0.27
28.659, 1.11
28.744, 1.16
28.859, 1.14
28.944, 1.16
28.953, -0.68
28.953, -0.80
28.955, -0.91
28.956, -1.12
29.050, -0.74
29.050, -0.70
29.058, 0.93
29.145, 1.02
29.151, -0.23
29.153, -0.58
29.155, -0.90
29.156, -1.11
29.259, 1.07
29.345, 1.02
29.355, -0.91
29.356, -1.10
29.459, 1.08
29.545, 1.06
29.552, -0.44
29.554, -0.83
29.556, -1.15
29.556, -1.20
29.650, -0.54
29.652, -0.37
29.657, 0.71
29.658, 0.96
29.658, 1.00
29.745, 1.02
29.752, -0.33
29.756, -1.07
29.852, -0.31
29.852, -0.19
29.858, 1.00
29.945, 0.99
29.953, -0.71
29.956, -1.16
30.050, -0.58
30.051, -0.40
30.059, 1.13
30.144, 1.20
30.153, -0.81
30.156, -1.13
30.258, 1.06
30.345, 1.01
30.351, -0.19
30.352, -0.40
30.452, -0.29
30.452, -0.17
30.458, 0.96
30.544, 1.15
30.552, -0.40
30.555, -1.04
30.657, 0.73
30.658, 0.88
30.659, 1.09
30.745, 1.02
30.752, -0.37
30.755, -0.99
30.850, -0.58
30.852, -0.32
30.859, 1.22
30.945, 1.04
30.951, -0.23
30.954, -0.95
31.049, -0.82
31.052, -0.32
31.059, 1.09
31.145, 1.11
31.153, -0.56
31.155, -1.04
31.252, -0.36
31.253, -0.13
31.259, 1.20
31.345, 1.06
31.352, -0.45
31.354, -0.96
31.451, -0.54
31.452, -0.30
31.457, 0.75
31.457, 0.85
31.458, 1.01
31.544, 1.15
31.551, -0.22
31.552, -0.45
31.555, -0.96
31.556, -1.09
31.658, 1.04
31.745, 1.13
31.755, -1.00
31.756, -1.13
31.850, -0.59
31.852, -0.33
31.859, 1.21
31.945, 1.02
32.052, -0.29
32.052, -0.21
32.058, 1.02
32.144, 1.15
32.152, -0.30
32.152, -0.44
32.251, -0.43
32.252, -0.17
32.259, 1.22
32.345, 0.98
32.352, -0.35
32.354, -0.90
32.452, -0.29
32.452, -0.15
32.459, 1.07
32.545, 1.12
32.555, -0.91
32.556, -1.11
32.650, -0.71
32.652, -0.34
32.658, 0.98
32.745, 1.03
32.752, -0.32
32.752, -0.43
32.859, 1.09
32.945, 1.00
32.954, -0.83
32.955, -1.02
33.050, -0.52
33.052, -0.28
33.059, 1.22
33.145, 1.03
33.151, -0.22
33.152, -0.42
33.155, -1.03
33.156, -1.12
33.157, -1.33
33.157, -1.34
33.252, -0.33
33.253, -0.10
33.258, 1.05
33.345, 1.07
33.353, -0.75
33.355, -1.05
33.459, 1.18
33.544, 1.23
33.544, 1.23
33.545, 1.02
33.658, 0.90
33.659, 1.15
33.659, 1.17
33.744, 1.17
33.752, -0.27
33.754, -0.87
33.755, -0.98
33.756, -1.11
33.850, -0.58
33.852, -0.32
33.857, 0.85
33.945, 1.09
33.951, -0.20
33.955, -1.06
34.049, -0.76
34.052, -0.28
34.058, 0.96
34.145, 0.98
34.250, -0.56
34.252, -0.32
34.257, 0.77
34.257, 0.81
34.258, 1.01
34.345, 1.09
34.353, -0.69
34.355, -1.09
34.452, -0.31
34.452, -0.16
34.457, 0.76
34.457, 0.77
34.459, 1.14
34.545, 1.01
34.551, -0.20
34.552, -0.44
34.555, -1.04
34.556, -1.11
34.649, -0.74
34.653, -0.13
34.658, 1.06
34.745, 1.06
34.751, -0.20
34.755, -1.03
34.849, -0.77
34.852, -0.18
34.858, 0.95
34.858, 1.02
34.859, 1.23
34.945, 1.12
34.953, -0.87
34.954, -1.05
35.052, -0.22
35.052, -0.13
35.059, 1.10
35.145, 1.01
35.153, -0.85
35.155, -1.07
35.259, 1.20
35.345, 1.00
35.355, -1.00
35.355, -1.03
35.450, -0.53
35.452, -0.33
35.458, 0.95
35.459, 1.10
35.459, 1.17
35.545, 1.04
35.551, -0.21
35.553, -0.65
35.555, -1.01
35.556, -1.11
35.652, -0.35
35.653, -0.13
35.660, 1.27
35.745, 0.96
35.752, -0.41
35.754, -1.05
35.850, -0.71
35.852, -0.27
35.857, 0.87
35.945, 1.12
35.951, -0.18
35.952, -0.44
35.955, -0.92
35.956, -1.11
36.052, -0.38
36.053, -0.09
36.060, 1.26
36.145, 1.02
36.154, -0.91
36.156, -1.12
36.251, -0.55
36.252, -0.35
36.259, 1.20
36.345, 0.98
36.353, -0.65
36.355, -0.98
36.451, -0.49
36.452, -0.26
36.458, 1.03
36.544, 1.14
36.552, -0.46
36.554, -0.96
36.658, 0.93
36.745, 0.99
36.755, -0.99
36.755, -1.04
36.849, -0.77
36.851, -0.63
36.858, 0.96
36.945, 0.96
36.952, -0.29
36.952, -0.50
36.953, -0.83
36.955, -1.05
37.059, 1.17
37.145, 0.98
37.151, -0.25
37.155, -1.07
37.250, -0.62
37.252, -0.31
37.258, 0.89
37.259, 1.09
37.259, 1.21
37.344, 1.24
37.357, -1.34
37.359, -1.65
37.457, 0.68
37.545, 1.05
37.545, 1.01
37.546, 0.75
37.553, -0.67
37.555, -1.03
37.650, -0.72
37.652, -0.36
37.658, 0.88
37.746, 0.90
37.751, -0.18
37.752, -0.39
37.755, -1.00
37.755, -1.04
37.849, -0.82
37.851, -0.58
37.858, 0.95
37.945, 0.99
37.952, -0.44
37.955, -1.11
38.058, 0.87
38.146, 0.83
38.252, -0.31
38.252, -0.17
38.258, 1.06
38.343, 1.45
38.352, -0.47
38.353, -0.69
38.450, -0.71
38.452, -0.42
38.458, 1.04
38.462, 1.73
38.463, 1.96
38.540, 1.94
38.542, 1.72
38.544, 1.33
38.552, -0.43
38.553, -0.74
38.649, -0.74
38.653, -0.12
38.659, 1.23
38.744, 1.31
38.755, -1.08
38.755, -1.13
38.850, -0.57
38.852, -0.35
38.858, 0.96
38.944, 1.23
38.951, -0.14
38.955, -1.05
39.052, -0.35
39.053, -0.07
39.059, 1.25
39.144, 1.32
39.155, -0.96
39.156, -1.11
39.250, -0.56
39.252, -0.29
39.259, 1.19
39.345, 1.13
39.450, -0.69
39.450, -0.68
39.452, -0.38
39.453, -0.13
39.459, 1.11
39.545, 1.10
39.552, -0.50
39.555, -1.02
39.650, -0.61
39.652, -0.31
39.658, 1.04
39.744, 1.24
39.752, -0.40
39.754, -0.72
39.755, -1.00
39.755, -1.05
39.858, 1.06
39.945, 1.01
39.952, -0.23
39.954, -0.82
40.050, -0.58
40.051, -0.40
40.059, 1.09
40.145, 1.06
40.152, -0.42
40.153, -0.76
40.249, -0.72
40.251, -0.53
40.258, 1.01
40.345, 1.00
40.352, -0.47
40.354, -0.86
40.354, -0.98
40.356, -1.12
40.451, -0.34
40.453, -0.11
40.459, 1.09
40.545, 1.06
40.555, -0.98
40.556, -1.09
40.658, 1.03
40.744, 1.22
40.754, -0.88
40.756, -1.13
40.858, 0.95
40.858, 1.03
40.859, 1.20
40.944, 1.16
40.951, -0.24
40.952, -0.48
40.955, -0.96
40.955, -0.98
41.050, -0.83
41.052, -0.16
41.058, 0.95
41.058, 0.98
41.060, 1.28
41.145, 1.08
41.154, -0.91
41.156, -1.11
41.250, -0.60
41.252, -0.33
41.259, 1.08
41.345, 1.01
41.351, -0.18
41.352, -0.41
41.353, -0.73
41.355, -1.05
41.450, -0.60
41.452, -0.34
41.458, 0.89
41.459, 1.15
41.459, 1.17
41.545, 1.01
41.554, -0.88
41.556, -1.12
41.650, -0.75
41.652, -0.34
41.659, 1.24
41.744, 1.20
41.753, -0.42
41.756, -1.11
41.850, -0.58
41.852, -0.37
41.859, 1.11
41.946, 0.92
42.059, 1.16
42.145, 1.10
42.152, -0.44
42.155, -1.03
42.251, -0.57
42.251, -0.40
42.259, 1.11
42.345, 1.13
42.459, 1.17
42.545, 1.05
42.554, -0.82
42.556, -1.11
42.650, -0.68
42.650, -0.63
42.658, 1.03
42.745, 1.07
42.752, -0.31
42.754, -1.09
42.858, 0.95
42.945, 0.96
42.952, -0.51
42.955, -1.07
43.052, -0.34
43.053, -0.11
43.058, 0.91
43.058, 1.06
43.059, 1.24
43.145, 0.98
43.152, -0.40
43.154, -0.82
43.155, -0.95
43.156, -1.11
43.259, 1.24
43.345, 1.06
43.459, 1.24
43.546, 0.90
43.551, -0.26
43.552, -0.43
43.650, -0.51
43.652, -0.14
43.659, 1.08
43.745, 1.09
43.754, -1.04
43.754, -1.05
43.850, -0.64
43.850, -0.59
43.852, -0.36
43.853, -0.11
43.859, 1.13
43.945, 1.12
43.952, -0.36
43.954, -0.87
44.058, 0.93
44.059, 1.10
44.059, 1.18
44.145, 1.08
44.251, -0.42
44.251, -0.37
44.258, 0.90
44.345, 1.10
44.351, -0.16
44.353, -0.48
44.452, -0.39
44.453, -0.08
44.458, 0.97
44.545, 1.11
44.553, -0.79
44.556, -1.11
44.658, 0.90
44.745, 1.07
44.752, -0.36
44.756, -1.12
44.850, -0.62
44.852, -0.38
44.859, 1.21
44.945, 1.09
44.951, -0.18
44.955, -1.03
45.050, -0.57
45.053, -0.10
45.059, 1.23
45.145, 1.06
45.151, -0.24
45.154, -0.88
45.259, 1.10
45.345, 1.04
45.354, -0.81
45.356, -1.11
45.449, -0.74
45.453, -0.08
45.458, 1.03
45.544, 1.15
45.554, -1.05
45.556, -1.12
45.650, -0.67
45.650, -0.66
45.658, 1.03
45.745, 1.02
45.753, -0.74
45.755, -1.01
45.849, -0.77
45.853, -0.09
45.858, 0.91
45.859, 1.15
45.859, 1.18
45.944, 1.14
45.952, -0.30
45.956, -1.11
46.058, 0.95
46.145, 0.94
46.154, -0.86
46.156, -1.09
46.250, -0.52
46.252, -0.31
46.258, 1.02
46.345, 1.08
46.452, -0.30
46.453, -0.11
46.458, 1.03
46.544, 1.14
46.659, 1.17
46.745, 1.05
46.752, -0.46
46.756, -1.13
46.851, -0.59
46.852, -0.37
46.858, 1.04
46.945, 1.13
46.951, -0.21
46.952, -0.37
47.050, -0.57
47.053, -0.12
47.058, 0.99
47.145, 1.03
47.154, -0.82
47.155, -1.01
47.259, 1.18
47.345, 1.03
47.352, -0.39
47.354, -0.93
47.355, -1.02
47.355, -1.04
47.451, -0.51
47.452, -0.12
47.459, 1.12
47.545, 1.12
47.551, -0.19
47.555, -1.09
47.658, 0.95
47.745, 1.07
47.849, -0.74
47.850, -0.58
47.852, -0.31
47.852, -0.24
47.858, 1.01
47.945, 1.08
47.953, -0.65
47.955, -1.03
48.049, -0.80
48.053, -0.12
48.058, 0.99
48.145, 1.05
48.151, -0.18
48.153, -0.51
48.249, -0.77
48.252, -0.32
48.258, 0.96
48.344, 1.20
48.458, 1.03
48.545, 1.10
48.551, -0.21
48.553, -0.46
48.650, -0.66
48.652, -0.34
48.658, 0.96
48.745, 1.03
48.752, -0.35
48.756, -1.11
48.852, -0.31
48.852, -0.17
48.858, 1.06
48.945, 1.11
49.059, 1.07
49.146, 0.85
49.151, -0.18
49.153, -0.48
49.154, -0.88
49.154, -1.09
49.249, -0.86
49.250, -0.81
49.252, -0.42
49.253, -0.10
49.259, 1.11
49.346, 0.93
49.355, -1.03
49.355, -1.08
49.458, 1.01
49.545, 1.03
49.552, -0.26
49.554, -1.06
49.651, -0.56
49.651, -0.37
49.658, 0.94
49.745, 1.06
49.751, -0.19
49.752, -0.49
49.851, -0.59
49.851, -0.49
49.858, 1.03
49.945, 1.10
49.951, -0.18
49.952, -0.49
49.954, -0.86
49.954, -0.99
50.058, 0.94
50.145, 1.07
50.152, -0.49
50.155, -0.96
50.251, -0.49
50.251, -0.38
50.258, 0.93
50.346, 0.94
50.353, -0.73
50.356, -1.13
50.449, -0.82
50.452, -0.37
50.458, 1.06
50.544, 1.14
50.554, -0.96
50.556, -1.11
50.650, -0.60
50.652, -0.31
50.658, 1.04
50.745, 1.07
50.752, -0.28
50.754, -0.88
50.850, -0.57
50.852, -0.32
50.858, 0.96
50.945, 1.02
51.059, 1.08
51.145, 1.02
51.252, -0.41
51.253, -0.17
51.258, 0.99
51.346, 0.93
51.354, -0.81
51.355, -1.03
51.458, 0.95
51.459, 1.12
51.459, 1.17
51.544, 1.24
51.650, -0.66
51.652, -0.37
51.658, 0.98
51.745, 1.09
51.752, -0.33
51.754, -0.93
51.852, -0.38
51.853, -0.11
51.858, 0.95
51.945, 0.98
51.954, -0.90
51.955, -1.00
52.051, -0.56
52.051, -0.46
52.058, 0.93
52.144, 1.27
52.145, 1.07
52.145, 1.03
52.155, -1.02
52.155, -1.09
52.250, -0.58
52.252, -0.18
52.258, 1.01
52.346, 0.83
52.353, -0.47
52.355, -1.04
52.449, -0.75
52.451, -0.56
52.459, 1.13
52.545, 1.01
52.652, -0.27
52.652, -0.13
52.658, 0.99
52.745, 1.05
52.746, 0.92
52.746, 0.84
52.753, -0.54
52.755, -1.07
52.852, -0.36
52.853, -0.14
52.858, 1.05
52.946, 0.91
52.953, -0.42
52.953, -0.60
53.059, 1.08
53.144, 1.27
53.153, -0.69
53.154, -1.04
53.249, -0.75
53.251, -0.50
53.259, 1.13
53.345, 0.96
53.351, -0.23
53.353, -0.60
53.458, 0.99
53.544, 1.15
53.553, -0.68
53.554, -1.00
53.650, -0.52
53.653, -0.08
53.658, 0.97
53.745, 1.08
53.753, -0.68
53.755, -1.09
53.850, -0.51
53.853, -0.08
53.858, 1.02
53.945, 1.08
54.050, -0.51
54.053, -0.13
54.058, 1.05
54.145, 1.10
54.152, -0.39
54.156, -1.12
54.249, -0.78
54.252, -0.31
54.259, 1.10
54.346, 0.82
54.353, -0.44
54.355, -1.04
54.449, -0.79
54.450, -0.75
54.452, -0.39
54.453, -0.15
54.459, 1.09
54.545, 1.09
54.555, -1.01
54.556, -1.12
54.652, -0.36
54.653, -0.12
54.659, 1.22
54.745, 1.11
54.751, -0.23
54.754, -1.02
54.859, 1.07
54.946, 0.93
54.952, -0.32
54.953, -0.60
55.049, -0.80
55.053, -0.12
55.058, 0.95
55.145, 1.01
55.154, -0.81
55.154, -1.01
55.250, -0.74
55.252, -0.37
55.259, 1.16
55.346, 0.93
55.354, -0.79
55.356, -1.11
55.458, 1.06
55.545, 0.96
55.552, -0.37
55.554, -0.84
55.651, -0.63
55.652, -0.35
55.658, 1.01
55.745, 0.98
55.754, -0.95
55.756, -1.10
55.851, -0.38
55.853, -0.12
55.859, 1.09
55.945, 1.13
55.952, -0.30
55.953, -0.66
56.049, -0.76
56.052, -0.32
56.058, 1.05
56.145, 0.95
56.151, -0.26
56.155, -1.02
56.250, -0.58
56.252, -0.27
56.259, 1.19
56.345, 0.98
56.355, -0.90
56.356, -1.11
56.458, 0.90
56.546, 0.94
56.552, -0.40
56.556, -1.09
56.650, -0.55
56.652, -0.31
56.658, 0.89
56.745, 1.07
56.755, -0.96
56.756, -1.12
56.851, -0.57
56.852, -0.16
56.858, 0.90
56.945, 0.96
56.952, -0.57
56.954, -0.76
56.954, -0.83
56.956, -1.09
57.058, 0.98
57.146, 0.93
57.153, -0.46
57.154, -0.78
57.155, -0.99
57.155, -1.00
57.249, -0.86
57.251, -0.71
57.258, 1.00
57.345, 1.11
57.452, -0.31
57.453, -0.16
57.457, 0.85
57.546, 0.90
57.555, -0.99
57.556, -1.09
57.650, -0.54
57.652, -0.26
57.658, 0.88
57.747, 0.71
57.751, -0.20
57.755, -1.07
57.851, -0.54
57.851, -0.43
57.859, 1.09
57.945, 1.00
58.058, 0.99
58.145, 1.07
58.152, -0.45
58.156, -1.11
58.252, -0.34
58.253, -0.11
58.259, 1.17
58.344, 1.27
58.344, 1.15
58.345, 0.97
58.352, -0.29
58.354, -0.80
58.452, -0.25
58.452, -0.23
58.459, 1.12
58.543, 1.37
58.545, 1.10
58.545, 0.95
58.554, -0.68
58.555, -0.96
58.652, -0.27
58.653, -0.10
58.659, 1.19
58.746, 0.82
58.751, -0.20
58.752, -0.51
58.753, -0.79
58.755, -1.03
58.859, 1.09
58.944, 1.15
58.946, 0.89
58.946, 0.83
58.955, -1.07
58.956, -1.16
59.052, -0.33
59.053, -0.10
59.059, 1.12
59.144, 1.21
59.151, -0.15
59.154, -0.87
59.259, 1.16
59.344, 1.22
59.352, -0.45
59.354, -1.07
59.450, -0.57
59.451, -0.40
59.458, 0.98
59.544, 1.16
59.552, -0.32
59.552, -0.45
59.658, 1.03
59.746, 0.92
59.752, -0.39
59.753, -0.66
59.850, -0.53
59.852, -0.15
59.858, 0.98
59.946, 0.94
59.952, -0.32
59.954, -0.79
59.955, -0.98
59.956, -1.12
60.059, 1.18
60.146, 0.89
60.151, -0.24
60.152, -0.49
60.154, -0.83
60.156, -1.13
60.250, -0.63
60.252, -0.28
60.258, 1.05
60.344, 1.16
60.346, 0.85
60.346, 0.83
60.352, -0.47
60.354, -0.77
60.459, 1.08
60.546, 0.80
60.552, -0.42
60.554, -0.87
60.659, 1.12
60.746, 0.79
60.752, -0.40
60.754, -0.79
60.859, 1.11
60.946, 0.90
61.058, 0.93
61.146, 0.88
61.151, -0.24
61.156, -1.13
61.259, 1.10
61.345, 1.07
61.449, -0.85
61.452, -0.22
61.458, 1.02
61.545, 1.08
61.551, -0.19
61.552, -0.47
61.554, -0.89
61.554, -1.03
61.651, -0.66
61.652, -0.42
61.658, 0.95
61.745, 0.99
61.751, -0.23
61.754, -0.81
61.849, -0.77
61.852, -0.28
61.859, 1.06
61.946, 0.83
61.953, -0.73
61.956, -1.10
62.050, -0.57
62.052, -0.29
62.058, 0.97
62.145, 1.04
62.145, 1.03
62.146, 0.78
62.152, -0.37
62.154, -0.89
62.252, -0.28
62.252, -0.22
62.259, 1.09
62.345, 0.96
62.352, -0.41
62.355, -1.02
62.452, -0.35
62.453, -0.09
62.458, 1.03
62.546, 0.79
62.555, -0.90
62.556, -1.12
62.649, -0.77
62.651, -0.40
62.658, 0.90
62.746, 0.83
62.754, -0.77
62.755, -1.06
62.852, -0.29
62.852, -0.16
62.858, 0.95
62.946, 0.82
63.050, -0.54
63.052, -0.33
63.058, 0.92
63.146, 0.88
63.151, -0.24
63.152, -0.50
63.155, -0.89
63.156, -1.08
63.259, 1.07
63.345, 1.00
63.457, 0.77
63.457, 0.78
63.458, 1.02
63.545, 1.06
63.554, -0.90
63.556, -1.09
63.647, -1.20
63.647, -1.17
63.650, -0.58
63.652, -0.33
63.658, 0.95
63.745, 1.03
63.751, -0.26
63.754, -1.06
63.850, -0.67
63.850, -0.60
63.852, -0.35
63.852, -0.16
63.857, 0.83
63.946, 0.86
63.953, -0.70
63.954, -1.01
64.051, -0.53
64.052, -0.32
64.058, 0.90
64.145, 1.08
64.155, -1.02
64.156, -1.11
64.258, 0.94
64.346, 0.89
64.351, -0.18
64.352, -0.43
64.449, -0.84
64.451, -0.38
64.458, 0.94
64.545, 1.05
64.553, -0.74
64.556, -1.14
64.651, -0.54
64.652, -0.40
64.658, 0.99
64.746, 0.91
64.753, -0.51
64.753, -0.56
64.755, -1.06
64.756, -1.11
64.849, -0.84
64.852, -0.36
64.859, 1.08
64.946, 0.91
64.951, -0.25
64.953, -0.60
64.955, -0.90
64.956, -1.08
65.047, -1.20
65.047, -1.18
65.059, 1.07
65.145, 0.99
65.151, -0.18
65.153, -0.48
65.154, -0.83
65.154, -0.95
65.249, -0.78
65.251, -0.65
65.258, 0.99
65.346, 0.89
65.353, -0.78
65.355, -1.04
65.452, -0.28
65.452, -0.15
65.457, 0.86
65.545, 0.96
65.551, -0.22
65.553, -0.46
65.647, -1.19
65.647, -1.14
65.658, 1.05
65.745, 1.00
65.747, 0.68
65.747, 0.64
65.751, -0.22
65.752, -0.48
65.850, -0.75
65.852, -0.36
65.858, 1.05
65.946, 0.89
65.953, -0.83
65.954, -0.97
66.058, 0.97
66.145, 1.12
66.151, -0.18
66.154, -0.80
66.155, -0.96
66.156, -1.13
66.249, -0.81
66.253, -0.11
66.258, 1.01
66.345, 1.07
66.352, -0.22
66.352, -0.39
66.354, -0.96
66.356, -1.12
66.449, -0.84
66.452, -0.33
66.458, 0.97
66.546, 0.86
66.552, -0.34
66.555, -1.07
66.658, 0.99
66.746, 0.90
66.752, -0.26
66.752, -0.41
66.858, 1.01
66.946, 0.94
66.952, -0.30
66.954, -1.04
67.049, -0.76
67.050, -0.71
67.058, 1.01
67.146, 0.90
67.152, -0.32
67.154, -0.82
67.252, -0.31
67.252, -0.21
67.258, 0.91
67.345, 1.06
67.353, -0.55
67.355, -1.07
67.450, -0.54
67.452, -0.27
67.457, 0.86
67.546, 0.89
67.551, -0.22
67.552, -0.43
67.554, -0.84
67.555, -1.02
67.649, -0.87
67.652, -0.34
67.658, 0.97
67.746, 0.90
67.849, -0.71
67.852, -0.38
67.858, 0.89
67.946, 0.93
67.953, -0.47
67.953, -0.61
68.052, -0.33
68.052, -0.21
68.058, 1.01
68.145, 0.99
68.151, -0.20
68.152, -0.37
68.249, -0.72
68.251, -0.69
68.258, 0.96
68.346, 0.82
68.351, -0.18
68.356, -1.13
68.452, -0.35
68.452, -0.18
68.457, 0.82
68.546, 0.93
68.658, 0.92
68.746, 0.93
68.753, -0.46
68.753, -0.63
68.849, -0.80
68.852, -0.37
68.858, 1.01
68.946, 0.93
68.951, -0.18
68.955, -1.08
69.052, -0.38
69.053, -0.13
69.058, 1.05
69.146, 0.81
69.152, -0.55
69.154, -1.06
69.249, -0.77
69.251, -0.52
69.251, -0.46
69.252, -0.17
69.258, 0.87
69.346, 0.90
69.351, -0.21
69.356, -1.13
69.448, -1.03
69.448, -1.00
69.451, -0.55
69.452, -0.19
69.458, 0.89
69.545, 0.95
69.555, -0.96
69.556, -1.08
69.651, -0.62
69.651, -0.48
69.657, 0.83
69.746, 0.91
69.755, -0.98
69.756, -1.13
69.851, -0.54
69.852, -0.32
69.858, 1.01
69.945, 0.95
69.951, -0.23
69.952, -0.49
69.954, -0.92
69.956, -1.12
70.049, -0.79
70.051, -0.61
70.052, -0.36
70.052, -0.15
70.057, 0.85
70.146, 0.93
70.258, 0.92
70.345, 1.09
70.351, -0.19
70.353, -0.43
70.449, -0.75
70.450, -0.58
70.458, 0.91
70.545, 0.98
70.552, -0.50
70.554, -0.97
70.650, -0.78
70.650, -0.76
70.657, 0.84
70.745, 0.98
70.752, -0.39
70.756, -1.08
70.849, -0.73
70.849, -0.73
70.858, 0.97
70.945, 1.00
70.953, -0.80
70.955, -0.99
71.057, 0.79
71.145, 0.99
71.152, -0.34
71.156, -1.11
71.251, -0.51
71.252, -0.28
71.257, 0.75
71.257, 0.86
71.258, 1.00
71.345, 0.94
71.351, -0.20
71.352, -0.45
71.450, -0.61
71.452, -0.34
71.458, 1.00
71.546, 0.83
71.553, -0.53
71.555, -1.03
71.658, 0.91
71.745, 1.07
71.754, -0.81
71.756, -1.10
71.852, -0.27
71.852, -0.20
71.859, 1.07
71.946, 0.80
71.951, -0.19
71.952, -0.47
71.953, -0.70
71.955, -1.09
72.050, -0.54
72.052, -0.15
72.058, 0.89
72.146, 0.93
72.153, -0.61
72.156, -1.12
72.249, -0.80
72.252, -0.33
72.258, 0.88
72.346, 0.93
72.352, -0.31
72.354, -0.93
72.452, -0.29
72.452, -0.14
72.458, 0.89
72.545, 1.02
72.551, -0.19
72.552, -0.37
72.649, -0.82
72.651, -0.44
72.657, 0.80
72.746, 0.88
72.751, -0.17
72.752, -0.44
72.753, -0.67
72.755, -1.02
72.851, -0.33
72.853, -0.11
72.858, 0.97
72.945, 1.07
72.953, -0.48
72.955, -1.00
73.057, 0.84
73.146, 0.82
73.155, -1.03
73.155, -1.04
73.249, -0.74
73.250, -0.59
73.257, 0.85
73.346, 0.89
73.449, -0.84
73.451, -0.39
73.459, 1.12
73.546, 0.88
73.555, -0.92
73.556, -1.08
73.651, -0.57
73.652, -0.23
73.658, 0.89
73.745, 0.98
73.751, -0.27
73.756, -1.12
73.850, -0.74
73.852, -0.36
73.857, 0.83
73.946, 0.86
73.953, -0.81
73.955, -1.07
74.052, -0.29
74.053, -0.12
74.058, 0.90
74.145, 1.05
74.151, -0.19
74.156, -1.11
74.251, -0.62
74.251, -0.46
74.258, 1.04
74.346, 0.87
74.351, -0.18
74.352, -0.47
74.353, -0.88
74.355, -1.10
74.450, -0.71
74.450, -0.57
74.452, -0.32
74.453, -0.08
74.458, 1.05
74.545, 1.06
74.553, -0.77
74.555, -1.03
74.658, 1.06
74.746, 0.82
74.751, -0.20
74.752, -0.42
74.753, -0.75
74.756, -1.11
74.850, -0.57
74.851, -0.38
74.857, 0.78
74.945, 0.96
75.049, -0.84
75.051, -0.57
75.058, 0.97
75.146, 0.92
75.152, -0.44
75.154, -0.67
75.251, -0.73
75.252, -0.27
75.258, 0.89
75.346, 0.85
75.355, -0.91
75.356, -1.12
75.449, -0.81
75.450, -0.63
75.452, -0.36
75.453, -0.15
75.457, 0.80
75.546, 0.86
75.554, -1.00
75.556, -1.12
75.658, 0.94
75.746, 0.86
75.752, -0.45
75.756, -1.10
75.851, -0.61
75.851, -0.54
75.859, 1.10
75.946, 0.81
75.952, -0.42
75.954, -0.71
75.955, -0.86
75.956, -1.11
76.049, -0.70
76.052, -0.40
76.058, 0.99
76.146, 0.81
76.154, -0.80
76.155, -1.02
76.252, -0.28
76.253, -0.13
76.258, 0.91
76.345, 1.04
76.345, 1.01
76.346, 0.83
76.351, -0.24
76.355, -1.11
76.449, -0.78
76.451, -0.65
76.452, -0.33
76.452, -0.14
76.458, 0.99
76.545, 0.97
76.552, -0.27
76.553, -0.77
76.555, -0.92
76.556, -1.09
76.658, 1.00
76.746, 0.93
76.752, -0.38
76.754, -0.76
76.852, -0.35
76.853, -0.12
76.858, 0.92
76.946, 0.91
76.953, -0.43
76.953, -0.59
77.058, 0.88
77.145, 0.98
77.258, 0.93
77.346, 0.87
77.354, -0.92
77.356, -1.12
77.457, 0.75
77.545, 1.05
77.552, -0.23
77.552, -0.35
77.554, -0.95
77.556, -1.13
77.652, -0.23
77.652, -0.16
77.657, 0.86
77.745, 1.09
77.751, -0.22
77.752, -0.48
77.850, -0.57
77.852, -0.29
77.857, 0.73
77.945, 1.11
77.954, -0.79
77.954, -0.98
78.057, 0.73
78.057, 0.85
78.058, 1.05
78.145, 0.94
78.153, -0.83
78.154, -1.04
78.249, -0.82
78.251, -0.62
78.252, -0.39
78.253, -0.13
78.258, 1.03
78.345, 1.01
78.354, -0.79
78.354, -1.04
78.460, 1.27
78.544, 1.32
78.552, -0.26
78.552, -0.40
78.555, -0.96
78.555, -0.97
78.659, 1.08
78.744, 1.21
78.753, -0.46
78.754, -0.96
78.859, 1.17
78.945, 1.05
78.955, -1.01
78.955, -1.09
79.059, 1.14
79.145, 1.04
79.153, -0.61
79.155, -0.94
79.250, -0.51
79.253, -0.10
79.258, 1.01
79.346, 0.82
79.351, -0.19
79.353, -0.82
79.450, -0.61
79.451, -0.37
79.458, 0.98
79.545, 0.99
79.551, -0.22
79.552, -0.45
79.555, -0.93
79.556, -1.08
79.649, -0.82
79.652, -0.37
79.659, 1.18
79.745, 0.94
79.752, -0.36
79.752, -0.43
79.754, -0.73
79.755, -1.07
79.849, -0.82
79.853, -0.11
79.857, 0.83
79.946, 0.89
79.951, -0.26
79.956, -1.10
80.050, -0.61
80.052, -0.31
80.058, 0.92
80.146, 0.89
80.153, -0.47
80.153, -0.69
80.250, -0.59
80.253, -0.08
80.258, 1.01
80.345, 1.00
80.352, -0.42
80.354, -0.90
80.451, -0.42
80.453, -0.11
80.458, 1.04
80.545, 1.08
80.546, 0.89
80.546, 0.83
80.651, -0.52
80.651, -0.40
80.658, 0.95
80.745, 1.06
80.751, -0.21
80.753, -0.59
80.753, -0.81
80.756, -1.10
80.858, 0.94
80.946, 0.87
80.951, -0.19
80.954, -0.85
81.052, -0.26
81.052, -0.16
81.058, 0.92
81.146, 0.89
81.151, -0.20
81.153, -0.65
81.153, -0.71
81.155, -0.99
81.252, -0.26
81.252, -0.20
81.258, 0.91
81.346, 0.86
81.352, -0.45
81.354, -0.72
81.354, -0.85
81.356, -1.17
81.449, -0.84
81.451, -0.67
81.459, 1.09
81.545, 1.00
81.554, -0.98
81.556, -1.17
81.651, -0.58
81.651, -0.41
81.657, 0.84
81.746, 0.82
81.754, -0.71
81.755, -0.87
81.851, -0.56
81.852, -0.38
81.857, 0.85
81.946, 0.90
81.953, -0.45
81.953, -0.60
81.955, -0.90
81.956, -1.09
82.058, 1.03
82.146, 0.91
82.250, -0.85
82.252, -0.33
82.258, 0.87
82.345, 0.97
82.353, -0.50
82.354, -1.07
82.457, 0.75
82.546, 0.82
82.553, -0.46
82.556, -1.19
82.650, -0.71
82.652, -0.31
82.657, 0.84
82.746, 0.79
82.751, -0.18
82.754, -1.10
82.849, -0.75
82.851, -0.54
82.852, -0.37
82.853, -0.13
82.858, 0.91
82.946, 0.79
82.953, -0.78
82.955, -1.04
83.050, -0.57
83.053, -0.12
83.058, 0.90
83.146, 0.78
83.258, 1.02
83.346, 0.78
83.354, -0.84
83.355, -1.17
83.458, 0.96
83.545, 0.95
83.551, -0.18
83.552, -0.40
83.555, -0.99
83.556, -1.16
83.649, -0.74
83.651, -0.62
83.658, 0.99
83.746, 0.93
83.753, -0.67
83.755, -1.04
83.851, -0.57
83.852, -0.38
83.858, 0.92
83.945, 0.96
83.953, -0.76
83.954, -1.01
84.049, -0.79
84.052, -0.32
84.058, 0.88
84.145, 0.95
84.251, -0.53
84.252, -0.20
84.258, 0.88
84.346, 0.88
84.352, -0.40
84.356, -1.09
84.457, 0.85
84.546, 0.90
84.552, -0.32
84.554, -0.82
84.649, -0.77
84.652, -0.17
84.658, 0.98
84.747, 0.74
84.753, -0.42
84.756, -1.22
84.857, 0.79
84.946, 0.89
84.952, -0.30
84.952, -0.37
85.050, -0.58
85.052, -0.31
85.057, 0.86
85.145, 0.97
85.151, -0.22
85.153, -0.66
85.155, -1.09
85.156, -1.15
85.249, -0.75
85.250, -0.62
85.252, -0.32
85.252, -0.24
85.258, 0.89
85.346, 0.83
85.352, -0.40
85.354, -0.85
85.451, -0.52
85.453, -0.12
85.457, 0.76
85.457, 0.84
85.458, 0.98
85.546, 0.79
85.553, -0.60
85.553, -0.83
85.555, -0.95
85.556, -1.06
85.652, -0.33
85.652, -0.22
85.658, 0.99
85.746, 0.83
85.751, -0.21
85.754, -0.94
85.850, -0.84
85.852, -0.35
85.857, 0.80
85.946, 0.77
86.058, 0.90
86.145, 1.01
86.155, -1.06
86.156, -1.15
86.249, -0.77
86.251, -0.51
86.257, 0.71
86.346, 0.79
86.353, -0.74
86.355, -1.17
86.452, -0.28
86.453, -0.11
86.458, 0.88
86.546, 0.74
86.555, -1.10
86.555, -1.14
86.658, 0.93
86.746, 0.79
86.754, -0.92
86.755, -1.10
86.856, 0.58
86.946, 0.85
86.953, -0.47
86.955, -1.08
87.049, -0.81
87.051, -0.56
87.057, 0.87
87.146, 0.77
87.151, -0.19
87.154, -1.06
87.250, -0.58
87.251, -0.37
87.258, 0.92
87.346, 0.80
87.353, -0.69
87.355, -1.06
87.457, 0.85
87.546, 0.93
87.553, -0.64
87.555, -1.00
87.649, -0.82
87.650, -0.78
87.656, 0.59
87.746, 0.86
87.752, -0.22
87.754, -0.98
87.857, 0.71
87.946, 0.87
87.951, -0.20
87.952, -0.41
87.954, -0.85
87.956, -1.12
88.052, -0.21
88.052, -0.20
88.056, 0.58
88.146, 0.92
88.152, -0.25
88.152, -0.37
88.154, -0.71
88.155, -0.97
88.249, -0.79
88.250, -0.72
88.257, 0.71
88.346, 0.85
88.353, -0.66
88.354, -1.06
88.452, -0.24
88.452, -0.16
88.457, 0.80
88.546, 0.87
88.553, -0.67
88.556, -1.10
88.649, -0.81
88.652, -0.25
88.657, 0.73
88.657, 0.87
88.658, 1.02
88.747, 0.73
88.752, -0.40
88.754, -0.64
88.849, -0.69
88.852, -0.36
88.857, 0.85
88.946, 0.85
88.952, -0.37
88.954, -0.81
89.050, -0.61
89.052, -0.36
89.057, 0.74
89.146, 0.78
89.152, -0.39
89.155, -1.08
89.257, 0.86
89.346, 0.87
89.352, -0.24
89.352, -0.34
89.457, 0.71
89.546, 0.86
89.551, -0.22
89.552, -0.43
89.555, -1.01
89.556, -1.11
89.649, -0.73
89.651, -0.48
89.657, 0.84
89.745, 0.99
89.753, -0.47
89.754, -1.05
89.849, -0.74
89.851, -0.60
89.852, -0.32
89.852, -0.16
89.857, 0.75
89.857, 0.86
89.858, 1.01
89.946, 0.92
90.051, -0.54
90.052, -0.17
90.057, 0.69
90.146, 0.78
90.154, -1.05
90.156, -1.12
90.257, 0.69
90.346, 0.78
90.352, -0.32
90.353, -0.68
90.451, -0.55
90.452, -0.40
90.458, 1.01
90.546, 0.77
90.553, -0.64
90.555, -1.00
90.656, 0.67
90.747, 0.73
90.753, -0.71
90.755, -1.02
90.851, -0.62
90.852, -0.21
90.858, 1.00
90.946, 0.78
90.951, -0.22
90.952, -0.43
90.953, -0.73
90.954, -1.03
91.051, -0.63
91.052, -0.16
91.058, 0.98
91.146, 0.75
91.152, -0.43
91.154, -0.84
91.252, -0.28
91.252, -0.17
91.257, 0.77
91.346, 0.77
91.351, -0.21
91.352, -0.42
91.353, -0.88
91.355, -0.97
91.449, -0.76
91.451, -0.52
91.457, 0.80
91.546, 0.76
91.551, -0.19
91.556, -1.11
91.651, -0.41
91.651, -0.32
91.657, 0.80
91.746, 0.82
91.755, -0.90
91.756, -1.11
91.857, 0.79
91.946, 0.83
92.050, -0.53
92.052, -0.29
92.057, 0.83
92.146, 0.91
92.152, -0.44
92.155, -1.07
92.257, 0.81
92.346, 0.91
92.451, -0.63
92.452, -0.29
92.457, 0.82
92.546, 0.89
92.553, -0.49
92.556, -1.12
92.657, 0.76
92.746, 0.78
92.753, -0.80
92.754, -1.05
92.850, -0.57
92.852, -0.26
92.857, 0.87
92.946, 0.87
92.952, -0.25
92.953, -0.74
93.050, -0.54
93.052, -0.29
93.057, 0.86
93.146, 0.81
93.249, -0.78
93.251, -0.55
93.257, 0.83
93.346, 0.77
93.352, -0.27
93.352, -0.41
93.457, 0.78
93.546, 0.87
93.546, 0.76
93.547, 0.63
93.552, -0.25
93.555, -1.10
93.658, 0.91
93.746, 0.88
93.752, -0.42
93.754, -0.69
93.755, -0.90
93.756, -1.09
93.858, 0.87
93.946, 0.77
93.953, -0.75
93.955, -1.00
94.049, -0.81
94.052, -0.29
94.057, 0.77
94.147, 0.72
94.153, -0.67
94.155, -1.00
94.257, 0.79
94.346, 0.86
94.351, -0.23
94.352, -0.50
94.354, -0.89
94.355, -0.97
94.450, -0.51
94.452, -0.29
94.457, 0.87
94.546, 0.90
94.552, -0.35
94.556, -1.13
94.652, -0.32
94.652, -0.18
94.658, 0.89
94.746, 0.85
94.753, -0.46
94.755, -1.07
94.850, -0.63
94.852, -0.30
94.857, 0.70
94.946, 0.84
94.951, -0.19
94.954, -1.01
95.050, -0.71
95.050, -0.57
95.057, 0.85
95.146, 0.90
95.257, 0.86
95.347, 0.68
95.351, -0.22
95.352, -0.40
95.355, -1.01
95.355, -1.10
95.451, -0.57
95.452, -0.20
95.457, 0.71
95.546, 0.77
95.551, -0.24
95.553, -0.67
95.651, -0.53
95.652, -0.32
95.657, 0.86
95.747, 0.70
95.751, -0.22
95.753, -0.43
95.753, -0.54
95.756, -1.09
95.851, -0.67
95.852, -0.24
95.857, 0.83
95.946, 0.89
95.954, -1.02
95.956, -1.12
96.050, -0.52
96.051, -0.34
96.057, 0.84
96.146, 0.78
96.153, -0.70
96.155, -1.04
96.257, 0.77
96.346, 0.87
96.352, -0.24
96.352, -0.47
96.353, -0.63
96.355, -0.96
96.449, -0.83
96.451, -0.66
96.452, -0.38
96.452, -0.18
96.457, 0.74
96.547, 0.73
96.551, -0.19
96.553, -0.43
96.651, -0.48
96.651, -0.45
96.657, 0.75
96.747, 0.73
96.753, -0.55
96.755, -1.02
96.849, -0.75
96.853, -0.11
96.857, 0.79
96.946, 0.81
96.952, -0.40
96.954, -0.80
97.049, -0.75
97.051, -0.52
97.057, 0.84
97.147, 0.70
97.152, -0.33
97.154, -0.81
97.258, 0.87
97.347, 0.65
97.352, -0.25
97.355, -1.06
97.456, 0.65
97.546, 0.86
97.546, 0.81
97.547, 0.63
97.553, -0.71
97.555, -0.98
97.657, 0.74
97.747, 0.69
97.752, -0.40
97.754, -0.75
97.850, -0.56
97.852, -0.33
97.857, 0.85
97.946, 0.78
97.952, -0.44
97.954, -0.83
98.050, -0.51
98.052, -0.29
98.058, 0.97
98.146, 0.92
98.258, 1.04
98.344, 1.26
98.344, 1.14
98.345, 1.01
98.352, -0.43
98.354, -0.76
98.459, 1.08
98.546, 0.83
98.552, -0.28
98.552, -0.37
98.553, -0.66
98.554, -0.82
98.650, -0.56
98.652, -0.33
98.659, 1.11
98.745, 1.05
98.752, -0.36
98.754, -0.75
98.754, -0.78
98.756, -1.10
98.858, 0.98
98.946, 0.78
98.951, -0.26
98.952, -0.47
99.050, -0.55
99.051, -0.36
99.058, 1.04
99.145, 1.01
99.151, -0.19
99.153, -0.82
99.258, 0.98
99.346, 0.81
99.352, -0.55
99.354, -1.05
99.449, -0.75
99.452, -0.23
99.458, 0.94
99.546, 0.93
99.551, -0.20
99.552, -0.46
99.554, -0.83
99.556, -1.12
99.651, -0.62
99.652, -0.16
99.657, 0.77
99.746, 0.75
99.751, -0.19
99.754, -1.02
99.852, -0.27
99.852, -0.17
99.858, 0.99
99.946, 0.76
99.951, -0.20
99.953, -0.77
100.057, 0.82
100.146, 0.84
100.152, -0.44
100.155, -1.08
100.257, 0.73
100.346, 0.78
100.355, -0.97
100.356, -1.11
100.451, -0.48
100.451, -0.45
100.457, 0.76
100.457, 0.80
100.458, 1.03
100.547, 0.73
100.552, -0.50
100.554, -0.74
100.649, -0.70
100.651, -0.47
100.652, -0.35
100.652, -0.19
100.657, 0.81
100.747, 0.69
100.753, -0.56
100.753, -0.78
100.858, 0.90
100.946, 0.76
100.951, -0.18
100.953, -0.76
100.954, -0.84
100.956, -1.11
101.047, -1.22
101.047, -1.18
101.051, -0.68
101.052, -0.39
101.058, 0.87
101.146, 0.79
101.153, -0.78
101.156, -1.13
101.258, 1.01
101.347, 0.74
101.355, -0.94
101.356, -1.13
101.450, -0.61
101.452, -0.38
101.458, 0.98
101.547, 0.67
101.553, -0.66
101.555, -1.02
101.649, -0.70
101.651, -0.63
101.657, 0.82
101.747, 0.65
101.751, -0.21
101.752, -0.41
101.850, -0.69
101.852, -0.37
101.857, 0.72
101.947, 0.70
101.951, -0.21
101.954, -0.82
102.049, -0.79
102.053, -0.13
102.058, 0.90
102.147, 0.67
102.151, -0.18
102.152, -0.44
102.249, -0.75
102.251, -0.42
102.257, 0.74
102.347, 0.73
102.353, -0.44
102.353, -0.66
102.447, -1.22
102.447, -1.17
102.458, 0.98
102.547, 0.70
102.553, -0.77
102.554, -1.04
102.652, -0.38
102.653, -0.15
102.657, 0.79
102.747, 0.71
102.755, -0.88
102.756, -1.14
102.857, 0.78
102.946, 0.78
102.952, -0.37
102.956, -1.08
103.049, -0.72
103.051, -0.62
103.057, 0.77
103.146, 0.82
103.151, -0.18
103.153, -0.64
103.257, 0.86
103.347, 0.70
103.457, 0.71
103.547, 0.73
103.552, -0.32
103.552, -0.32
103.555, -1.00
103.556, -1.08
103.649, -0.82
103.651, -0.57
103.658, 0.89
103.747, 0.72
103.752, -0.24
103.754, -0.88
103.850, -0.68
103.852, -0.36
103.857, 0.81
103.947, 0.72
103.951, -0.21
103.955, -1.03
104.049, -0.73
104.052, -0.31
104.057, 0.77
104.146, 0.81
104.151, -0.21
104.154, -0.80
104.249, -0.75
104.251, -0.63
104.251, -0.44
104.252, -0.15
104.257, 0.71
104.346, 0.88
104.346, 0.77
104.347, 0.59
104.354, -0.96
104.356, -1.11
104.452, -0.25
104.452, -0.15
104.457, 0.73
104.547, 0.72
104.552, -0.38
104.556, -1.12
104.649, -0.75
104.651, -0.46
104.652, -0.25
104.652, -0.17
104.657, 0.69
104.747, 0.66
104.752, -0.39
104.754, -0.82
104.852, -0.34
104.852, -0.19
104.857, 0.72
104.946, 0.82
104.952, -0.44
104.953, -0.72
105.049, -0.83
105.051, -0.65
105.057, 0.70
105.147, 0.62
105.151, -0.20
105.152, -0.37
105.153, -0.68
105.155, -0.94
105.251, -0.59
105.252, -0.28
105.258, 0.90
105.347, 0.64
105.457, 0.72
105.547, 0.63
105.650, -0.65
105.652, -0.34
105.657, 0.69
105.746, 0.78
105.755, -0.91
105.756, -1.12
105.851, -0.62
105.852, -0.36
105.856, 0.66
105.947, 0.72
105.953, -0.58
105.954, -1.04
106.050, -0.63
106.052, -0.19
106.057, 0.82
106.147, 0.73
106.154, -1.04
106.155, -1.03
106.252, -0.33
106.252, -0.18
106.257, 0.81
106.347, 0.69
106.351, -0.22
106.352, -0.40
106.353, -0.70
106.355, -1.03
106.449, -0.73
106.451, -0.53
106.457, 0.70
106.546, 0.76
106.551, -0.22
106.552, -0.42
106.555, -0.99
106.556, -1.11
106.649, -0.68
106.652, -0.26
106.658, 0.92
106.747, 0.72
106.751, -0.22
106.752, -0.47
106.753, -0.72
106.755, -1.07
106.848, -1.04
106.848, -0.95
106.852, -0.24
106.852, -0.19
106.856, 0.67
106.947, 0.71
106.951, -0.21
106.953, -0.47
107.052, -0.33
107.053, -0.12
107.057, 0.84
107.146, 0.83
107.249, -0.80
107.251, -0.62
107.257, 0.84
107.346, 0.76
107.353, -0.46
107.353, -0.60
107.451, -0.52
107.451, -0.50
107.457, 0.71
107.546, 0.86
107.555, -0.93
107.556, -1.11
107.649, -0.82
107.651, -0.51
107.657, 0.70
107.746, 0.86
107.752, -0.40
107.755, -1.00
107.857, 0.73
107.947, 0.72
107.952, -0.43
107.953, -0.79
107.955, -0.98
107.956, -1.11
108.052, -0.23
108.052, -0.20
108.057, 0.70
108.146, 0.79
108.155, -0.95
108.156, -1.13
108.257, 0.74
108.347, 0.73
108.451, -0.57
108.452, -0.31
108.457, 0.86
108.547, 0.61
108.552, -0.30
108.552, -0.35
108.553, -0.68
108.555, -0.95
108.649, -0.70
108.651, -0.44
108.657, 0.79
108.747, 0.70
108.753, -0.78
108.756, -1.12
108.849, -0.75
108.851, -0.50
108.857, 0.78
108.946, 0.81
108.955, -0.90
108.956, -1.11
109.057, 0.74
109.147, 0.68
109.154, -0.78
109.155, -0.98
109.249, -0.76
109.250, -0.64
109.252, -0.22
109.252, -0.20
109.256, 0.62
109.347, 0.71
109.352, -0.42
109.355, -0.96
109.449, -0.77
109.451, -0.42
109.452, -0.23
109.452, -0.21
109.457, 0.80
109.547, 0.59
109.553, -0.43
109.555, -1.07
109.649, -0.79
109.651, -0.61
109.656, 0.67
109.747, 0.64
109.755, -0.91
109.756, -1.10
109.857, 0.74
109.947, 0.66
110.057, 0.82
110.146, 0.79
110.151, -0.21
110.152, -0.41
110.154, -0.92
110.154, -1.01
110.251, -0.54
110.252, -0.33
110.257, 0.83
110.347, 0.72
110.352, -0.27
110.355, -1.05
110.449, -0.82
110.451, -0.60
110.457, 0.83
110.547, 0.65
110.551, -0.20
110.552, -0.43
110.555, -0.97
110.556, -1.11
110.657, 0.72
110.746, 0.85
110.751, -0.21
110.753, -0.67
110.857, 0.69
110.946, 0.85
110.953, -0.67
110.955, -1.00
111.057, 0.78
111.147, 0.63
111.153, -0.47
111.156, -1.10
111.249, -0.76
111.250, -0.61
111.256, 0.63
111.347, 0.72
111.353, -0.71
111.355, -1.04
111.449, -0.77
111.451, -0.42
111.457, 0.78
111.546, 0.75
111.552, -0.36
111.552, -0.37
111.553, -0.57
111.555, -1.08
111.657, 0.67
111.746, 0.83
111.752, -0.44
111.754, -0.86
111.857, 0.72
111.947, 0.71
111.953, -0.59
111.956, -1.07
112.051, -0.52
112.052, -0.25
112.057, 0.70
112.147, 0.65
112.151, -0.16
112.153, -0.50
112.155, -1.04
112.155, -1.12
112.249, -0.73
112.252, -0.33
112.257, 0.72
112.347, 0.61
112.352, -0.37
112.355, -1.04
112.457, 0.76
112.547, 0.72
112.552, -0.34
112.553, -0.69
112.651, -0.67
112.652, -0.24
112.657, 0.86
112.746, 0.85
112.755, -1.00
112.755, -1.09
112.857, 0.76
112.947, 0.73
112.952, -0.39
112.955, -1.04
113.057, 0.72
113.146, 0.78
113.155, -0.90
113.156, -1.11
113.250, -0.66
113.250, -0.57
113.256, 0.65
113.347, 0.70
113.351, -0.19
113.355, -1.04
113.457, 0.68
113.458, 0.97
113.458, 0.97
113.547, 0.64
113.555, -0.93
113.556, -1.10
113.652, -0.30
113.653, -0.09
113.657, 0.69
113.746, 0.86
113.754, -0.79
113.755, -1.07
113.849, -0.73
113.851, -0.48
113.857, 0.73
113.946, 0.84
113.951, -0.21
113.952, -0.39
113.954, -0.78
113.954, -1.02
114.051, -0.62
114.052, -0.34
114.057, 0.81
114.147, 0.63
114.151, -0.22
114.153, -0.71
114.251, -0.66
114.252, -0.33
114.256, 0.58
114.347, 0.64
114.352, -0.29
114.352, -0.43
114.354, -0.96
114.354, -1.03
114.452, -0.30
114.452, -0.17
114.457, 0.81
114.547, 0.59
114.551, -0.19
114.553, -0.77
114.555, -1.01
114.555, -1.05
114.650, -0.63
114.650, -0.61
114.652, -0.31
114.652, -0.14
114.657, 0.75
114.747, 0.69
114.752, -0.25
114.752, -0.30
114.857, 0.70
114.947, 0.63
114.953, -0.54
114.953, -0.69
115.057, 0.76
115.147, 0.71
115.153, -0.66
115.156, -1.11
115.250, -0.61
115.252, -0.19
115.256, 0.67
115.347, 0.72
115.352, -0.38
115.354, -0.88
115.354, -1.01
115.356, -1.12
115.457, 0.78
115.546, 0.81
115.552, -0.26
115.556, -1.13
115.649, -0.77
115.651, -0.51
115.657, 0.72
115.747, 0.72
115.754, -0.72
115.754, -0.87
115.849, -0.77
115.851, -0.59
115.857, 0.71
115.947, 0.74
115.953, -0.64
115.955, -1.00
116.057, 0.68
116.146, 0.76
116.152, -0.43
116.153, -0.72
116.257, 0.77
116.347, 0.74
116.352, -0.41
116.353, -0.71
116.355, -0.91
116.356, -1.12
116.457, 0.75
116.546, 0.85
116.553, -0.65
116.555, -0.88
116.649, -0.81
116.652, -0.34
116.657, 0.79
116.747, 0.71
116.751, -0.25
116.753, -0.70
116.755, -0.94
116.756, -1.12
116.849, -0.74
116.852, -0.25
116.857, 0.79
116.946, 0.85
116.953, -0.46
116.955, -1.08
117.056, 0.66
117.147, 0.73
117.152, -0.42
117.155, -1.01
117.249, -0.79
117.252, -0.40
117.256, 0.65
117.346, 0.80
117.456, 0.60
117.547, 0.56
117.552, -0.32
117.554, -0.70
117.555, -0.92
117.555, -1.10
117.656, 0.55
117.747, 0.65
117.752, -0.47
117.754, -0.88
117.857, 0.85
117.946, 0.85
118.057, 0.74
118.057, 0.83
118.058, 1.00
118.146, 0.80
118.252, -0.27
118.252, -0.12
118.258, 0.93
118.346, 0.92
118.355, -0.87
118.356, -1.10
118.450, -0.51
118.452, -0.27
118.458, 1.03
118.546, 0.90
118.554, -0.70
118.556, -1.11
118.650, -0.65
118.652, -0.34
118.658, 0.87
118.746, 0.86
118.753, -0.60
118.754, -1.04
118.851, -0.57
118.851, -0.50
118.858, 0.87
118.947, 0.74
118.951, -0.22
118.952, -0.58
118.954, -0.95
118.956, -1.10
119.050, -0.51
119.052, -0.34
119.057, 0.85
119.147, 0.72
119.151, -0.23
119.152, -0.48
119.251, -0.50
119.251, -0.44
119.257, 0.79
119.346, 0.82
119.355, -0.91
119.356, -1.13
119.450, -0.52
119.452, -0.36
119.457, 0.84
119.546, 0.93
119.552, -0.47
119.553, -0.77
119.649, -0.83
119.651, -0.63
119.652, -0.35
119.653, -0.12
119.657, 0.76
119.746, 0.79
119.751, -0.18
119.753, -0.47
119.754, -0.69
119.755, -0.87
119.849, -0.76
119.852, -0.32
119.857, 0.72
119.946, 0.82
119.953, -0.86
119.956, -1.13
120.057, 0.86
120.147, 0.74
120.152, -0.37
120.156, -1.13
120.249, -0.76
120.252, -0.37
120.257, 0.84
120.346, 0.83
120.352, -0.37
120.354, -0.71
120.449, -0.81
120.450, -0.66
120.458, 0.88
120.546, 0.80
120.553, -0.49
120.556, -1.12
120.652, -0.43
120.653, -0.15
120.657, 0.81
120.746, 0.76
120.751, -0.18
120.752, -0.44
120.852, -0.30
120.852, -0.17
120.857, 0.83
120.946, 0.87
120.952, -0.39
120.954, -0.69
120.955, -1.20
120.955, -1.23
121.049, -0.71
121.051, -0.51
121.052, -0.33
121.052, -0.23
121.057, 0.76
121.147, 0.70
121.151, -0.18
121.153, -0.46
121.258, 0.98
121.347, 0.74
121.351, -0.26
121.355, -1.02
121.457, 0.73
121.458, 0.93
121.458, 0.98
121.546, 0.78
121.554, -0.84
121.556, -1.18
121.657, 0.73
121.747, 0.70
121.751, -0.19
121.752, -0.41
121.755, -0.98
121.756, -1.17
121.850, -0.78
121.850, -0.76
121.857, 0.78
121.946, 0.82
121.952, -0.41
121.954, -0.78
121.954, -0.92
121.956, -1.14
122.052, -0.27
122.052, -0.12
122.057, 0.73
122.147, 0.74
122.251, -0.60
122.252, -0.24
122.257, 0.69
122.346, 0.86
122.352, -0.44
122.355, -1.12
122.450, -0.66
122.452, -0.35
122.457, 0.82
122.547, 0.72
122.552, -0.42
122.555, -0.96
122.649, -0.76
122.652, -0.19
122.657, 0.81
122.747, 0.70
122.752, -0.22
122.752, -0.36
122.753, -0.71
122.756, -1.13
122.851, -0.68
122.852, -0.34
122.857, 0.71
122.946, 0.76
123.051, -0.62
123.052, -0.15
123.057, 0.72
123.146, 0.87
123.147, 0.68
123.147, 0.64
123.154, -0.85
123.156, -1.12
123.257, 0.69
123.346, 0.82
123.354, -0.83
123.355, -1.05
123.450, -0.65
123.452, -0.36
123.457, 0.82
123.547, 0.68
123.554, -0.95
123.554, -1.01
123.656, 0.62
123.747, 0.72
123.752, -0.28
123.753, -0.46
123.753, -0.54
123.754, -0.85
123.852, -0.26
123.852, -0.16
123.856, 0.57
123.857, 0.69
123.857, 0.79
123.946, 0.77
123.952, -0.40
123.953, -0.59
123.955, -1.01
123.955, -1.02
124.057, 0.70
124.147, 0.72
124.152, -0.22
124.153, -0.41
124.153, -0.54
124.154, -0.88
124.256, 0.58
124.256, 0.59
124.257, 0.81
124.347, 0.67
124.351, -0.22
124.354, -1.04
124.457, 0.73
124.547, 0.65
124.553, -0.70
124.554, -0.98
124.650, -0.52
124.652, -0.26
124.657, 0.69
124.747, 0.60
124.751, -0.21
124.755, -0.96
124.850, -0.62
124.852, -0.29
124.856, 0.54
124.947, 0.70
124.953, -0.67
124.955, -0.99
125.049, -0.74
125.052, -0.37
125.056, 0.68
125.146, 0.80
125.250, -0.51
125.252, -0.23
125.257, 0.73
125.346, 0.84
125.354, -0.76
125.354, -1.00
125.456, 0.61
125.547, 0.56
125.553, -0.84
125.556, -1.07
125.656, 0.55
125.656, 0.65
125.657, 0.86
125.747, 0.73
125.752, -0.37
125.753, -0.63
125.755, -1.04
125.755, -1.12
125.849, -0.78
125.851, -0.50
125.856, 0.62
125.946, 0.76
125.956, -1.17
125.956, -1.19
126.050, -0.62
126.052, -0.25
126.056, 0.53
126.146, 0.86
126.146, 0.75
126.147, 0.61
126.252, -0.24
126.252, -0.20
126.256, 0.51
126.347, 0.57
126.352, -0.44
126.353, -0.77
126.355, -1.04
126.355, -1.06
126.450, -0.54
126.452, -0.25
126.457, 0.69
126.547, 0.69
126.551, -0.23
126.556, -1.08
126.649, -0.72
126.650, -0.56
126.656, 0.55
126.746, 0.76
126.752, -0.43
126.755, -0.96
126.849, -0.78
126.852, -0.30
126.856, 0.56
126.947, 0.69
126.954, -0.86
126.956, -1.06
127.049, -0.77
127.051, -0.59
127.052, -0.30
127.052, -0.16
127.057, 0.71
127.147, 0.71
127.151, -0.23
127.152, -0.43
127.250, -0.70
127.252, -0.34
127.256, 0.67
127.346, 0.82
127.352, -0.28
127.353, -0.69
127.451, -0.51
127.452, -0.29
127.456, 0.66
127.547, 0.56
127.554, -0.81
127.556, -1.13
127.656, 0.61
127.747, 0.68
127.751, -0.22
127.752, -0.48
127.857, 0.68
127.947, 0.70
128.049, -0.80
128.052, -0.28
128.056, 0.63
128.147, 0.59
128.155, -0.92
128.156, -1.06
128.250, -0.57
128.252, -0.26
128.256, 0.58
128.347, 0.66
128.352, -0.26
128.352, -0.42
128.354, -0.79
128.354, -1.02
128.452, -0.26
128.452, -0.21
128.457, 0.80
128.547, 0.72
128.552, -0.46
128.553, -0.70
128.650, -0.60
128.650, -0.58
128.657, 0.75
128.747, 0.56
128.755, -0.91
128.756, -1.07
128.856, 0.64
128.947, 0.63
128.952, -0.36
128.952, -0.39
128.953, -0.71
128.954, -0.97
129.056, 0.60
129.146, 0.76
129.151, -0.22
129.154, -0.86
129.256, 0.58
129.347, 0.69
129.352, -0.46
129.355, -1.01
129.456, 0.59
129.547, 0.55
129.649, -0.72
129.652, -0.27
129.656, 0.50
129.747, 0.72
129.752, -0.24
129.752, -0.38
129.856, 0.65
129.947, 0.64
129.952, -0.38
129.956, -1.16
130.056, 0.67
130.146, 0.84
130.147, 0.68
130.147, 0.65
130.154, -0.94
130.154, -0.99
130.256, 0.51
130.346, 0.81
130.352, -0.23
130.356, -1.09
130.456, 0.52
130.547, 0.69
130.552, -0.35
130.554, -0.83
130.651, -0.56
130.652, -0.24
130.656, 0.64
130.747, 0.57
130.755, -0.99
130.756, -1.13
130.850, -0.56
130.852, -0.27
130.856, 0.67
130.947, 0.68
130.951, -0.25
130.952, -0.43
131.057, 0.83
131.147, 0.67
131.154, -0.76
131.155, -1.06
131.256, 0.59
131.347, 0.67
131.353, -0.66
131.356, -1.11
131.456, 0.62
131.547, 0.66
131.650, -0.66
131.652, -0.35
131.657, 0.81
131.747, 0.67
131.752, -0.28
131.754, -0.67
131.850, -0.64
131.852, -0.33
131.856, 0.64
131.946, 0.86
131.947, 0.68
131.947, 0.64
131.952, -0.29
131.954, -0.78
132.049, -0.78
132.051, -0.56
132.056, 0.66
132.147, 0.69
132.256, 0.54
132.347, 0.71
132.354, -0.77
132.354, -0.97
132.456, 0.61
132.546, 0.80
132.553, -0.54
132.553, -0.58
132.649, -0.79
132.651, -0.55
132.656, 0.66
132.747, 0.61
132.752, -0.41
132.756, -1.11
132.856, 0.59
132.947, 0.71
132.953, -0.60
132.956, -1.11
133.057, 0.69
133.147, 0.64
133.153, -0.68
133.154, -0.94
133.256, 0.57
133.347, 0.72
133.353, -0.84
133.354, -1.06
133.456, 0.67
133.547, 0.66
133.552, -0.28
133.553, -0.64
133.649, -0.73
133.651, -0.43
133.656, 0.65
133.746, 0.85
133.746, 0.79
133.747, 0.61
133.751, -0.24
133.754, -0.82
133.856, 0.66
133.947, 0.71
133.952, -0.27
133.953, -0.73
134.056, 0.62
134.146, 0.77
134.153, -0.55
134.155, -1.04
134.256, 0.58
134.347, 0.59
134.352, -0.47
134.354, -0.82
134.355, -0.95
134.356, -1.11
134.450, -0.56
134.452, -0.30
134.456, 0.54
134.456, 0.66
134.457, 0.80
134.547, 0.68
134.552, -0.28
134.552, -0.42
134.553, -0.75
134.556, -1.13
134.657, 0.71
134.747, 0.72
134.755, -0.97
134.755, -1.00
134.857, 0.71
134.947, 0.72
135.050, -0.69
135.052, -0.29
135.056, 0.67
135.146, 0.82
135.154, -0.92
135.155, -1.08
135.256, 0.67
135.347, 0.60
135.456, 0.66
135.546, 0.77
135.553, -0.68
135.556, -1.11
135.649, -0.79
135.652, -0.25
135.657, 0.71
135.747, 0.67
135.752, -0.29
135.752, -0.41
135.753, -0.69
135.756, -1.10
135.851, -0.58
135.852, -0.32
135.856, 0.62
135.947, 0.60
135.953, -0.53
135.955, -1.03
136.049, -0.81
136.050, -0.67
136.057, 0.79
136.147, 0.72
136.152, -0.39
136.156, -1.09
136.249, -0.69
136.251, -0.46
136.257, 0.68
136.347, 0.70
136.352, -0.26
136.352, -0.44
136.449, -0.83
136.452, -0.30
136.456, 0.66
136.547, 0.71
136.551, -0.24
136.553, -0.51
136.657, 0.70
136.747, 0.68
136.751, -0.20
136.752, -0.38
136.851, -0.56
136.852, -0.29
136.856, 0.64
136.947, 0.59
136.952, -0.41
136.953, -0.69
137.051, -0.55
137.052, -0.26
137.056, 0.67
137.147, 0.72
137.155, -0.98
137.155, -1.06
137.256, 0.58
137.347, 0.57
137.451, -0.54
137.452, -0.37
137.455, 0.47
137.547, 0.58
137.554, -0.72
137.555, -0.97
137.656, 0.54
137.747, 0.68
137.753, -0.61
137.755, -1.15
137.856, 0.61
137.947, 0.60
137.953, -0.50
137.955, -1.05
138.050, -0.60
138.052, -0.27
138.056, 0.55
138.056, 0.61
138.057, 0.85
138.146, 0.88
138.250, -0.54
138.252, -0.28
138.257, 0.80
138.346, 0.80
138.353, -0.76
138.355, -1.04
138.451, -0.53
138.451, -0.46
138.458, 0.99
138.545, 0.94
138.554, -0.92
138.556, -1.13
138.658, 0.91
138.747, 0.71
138.850, -0.57
138.852, -0.12
138.856, 0.66
138.947, 0.73
139.057, 0.73
139.147, 0.72
139.151, -0.21
139.153, -0.57
139.155, -0.94
139.156, -1.11
139.252, -0.38
139.253, -0.14
139.257, 0.75
139.345, 0.95
139.351, -0.23
139.356, -1.12
139.449, -0.79
139.451, -0.56
139.458, 0.88
139.545, 1.04
139.545, 1.03
139.546, 0.76
139.551, -0.20
139.552, -0.51
139.555, -0.93
139.556, -1.10
139.650, -0.59
139.652, -0.37
139.657, 0.76
139.746, 0.80
139.751, -0.20
139.752, -0.43
139.850, -0.61
139.852, -0.29
139.857, 0.85
139.946, 0.86
139.953, -0.67
139.955, -1.07
140.057, 0.79
140.147, 0.73
140.151, -0.22
140.155, -1.02
140.250, -0.61
140.252, -0.35
140.257, 0.69
140.347, 0.70
140.354, -0.77
140.355, -1.04
140.449, -0.85
140.452, -0.38
140.457, 0.83
140.547, 0.73
140.553, -0.47
140.553, -0.59
140.554, -0.94
140.556, -1.13
140.657, 0.77
140.746, 0.80
140.851, -0.63
140.852, -0.34
140.857, 0.85
140.946, 0.86
140.946, 0.79
140.947, 0.63
140.951, -0.22
140.952, -0.42
140.955, -0.89
140.956, -1.11
141.049, -0.81
141.051, -0.65
141.057, 0.75
141.147, 0.71
141.152, -0.44
141.156, -1.13
141.257, 0.75
141.347, 0.70
141.352, -0.34
141.354, -0.72
141.451, -0.54
141.452, -0.24
141.457, 0.71
141.547, 0.70
141.555, -1.01
141.556, -1.13
141.657, 0.73
141.746, 0.85
141.751, -0.21
141.752, -0.46
141.753, -0.65
141.756, -1.12
141.851, -0.62
141.852, -0.14
141.856, 0.66
141.947, 0.72
141.952, -0.48
141.953, -0.83
142.050, -0.86
142.052, -0.25
142.056, 0.56
142.146, 0.80
142.152, -0.45
142.154, -0.79
142.252, -0.23
142.252, -0.22
142.257, 0.70
142.347, 0.70
142.354, -0.84
142.356, -1.10
142.457, 0.73
142.547, 0.63
142.552, -0.48
142.554, -1.04
142.657, 0.82
142.746, 0.75
142.753, -0.76
142.755, -1.06
142.857, 0.72
142.946, 0.76
142.952, -0.49
142.955, -1.06
143.052, -0.26
143.052, -0.18
143.057, 0.77
143.147, 0.64
143.249, -0.71
143.250, -0.52
143.257, 0.76
143.347, 0.72
143.354, -0.80
143.354, -0.97
143.450, -0.50
143.452, -0.28
143.457, 0.69
143.547, 0.63
143.552, -0.46
143.553, -0.62
143.555, -0.85
143.556, -1.11
143.651, -0.39
143.651, -0.36
143.656, 0.65
143.746, 0.75
143.753, -0.54
143.753, -0.78
143.755, -0.94
143.756, -1.10
143.856, 0.58
143.947, 0.74
143.953, -0.51
143.955, -1.01
144.050, -0.56
144.052, -0.29
144.057, 0.69
144.147, 0.60
144.152, -0.48
144.154, -0.72
144.155, -0.97
144.156, -1.13
144.251, -0.57
144.251, -0.44
144.257, 0.77
144.346, 0.75
144.355, -0.86
144.356, -1.12
144.450, -0.60
144.452, -0.24
144.457, 0.71
144.547, 0.71
144.553, -0.68
144.555, -0.99
144.651, -0.68
144.652, -0.29
144.656, 0.53
144.747, 0.57
144.850, -0.58
144.852, -0.31
144.856, 0.63
144.947, 0.68
144.953, -0.62
144.956, -1.10
145.051, -0.48
145.051, -0.45
145.057, 0.71
145.147, 0.59
145.151, -0.22
145.153, -0.51
145.155, -0.97
145.155, -1.04
145.256, 0.57
145.347, 0.62
145.351, -0.24
145.352, -0.41
145.353, -0.60
145.356, -1.13
145.457, 0.68
145.547, 0.63
145.552, -0.39
145.554, -0.71
145.649, -0.80
145.652, -0.37
145.656, 0.52
145.747, 0.69
145.753, -0.70
145.755, -1.05
145.851, -0.57
145.852, -0.38
145.856, 0.62
145.947, 0.66
145.952, -0.28
145.954, -0.70
145.955, -0.85
145.956, -1.11
146.050, -0.63
146.052, -0.26
146.056, 0.56
146.056, 0.65
146.057, 0.79
146.147, 0.71
146.155, -1.06
146.156, -1.15
146.250, -0.58
146.252, -0.32
146.256, 0.67
146.347, 0.68
146.353, -0.49
146.353, -0.67
146.355, -0.99
146.356, -1.11
146.457, 0.69
146.546, 0.87
146.553, -0.56
146.553, -0.71
146.555, -0.88
146.556, -1.10
146.650, -0.69
146.650, -0.55
146.656, 0.57
146.747, 0.70
146.752, -0.41
146.756, -1.10
146.849, -0.74
146.851, -0.51
146.857, 0.72
146.946, 0.87
146.946, 0.77
146.947, 0.59
146.952, -0.26
146.952, -0.38
147.056, 0.51
147.147, 0.64
147.249, -0.79
147.251, -0.59
147.257, 0.70
147.347, 0.56
147.355, -0.97
147.355, -1.05
147.457, 0.74
147.547, 0.68
147.552, -0.24
147.553, -0.68
147.656, 0.64
147.748, 0.51
147.856, 0.52
147.947, 0.58
147.952, -0.25
147.954, -0.95
148.051, -0.58
148.051, -0.54
148.057, 0.68
148.147, 0.65
148.153, -0.49
148.153, -0.65
148.155, -0.88
148.156, -1.10
148.257, 0.68
148.347, 0.57
148.352, -0.27
148.352, -0.32
148.353, -0.81
148.355, -1.06
148.447, -1.22
148.447, -1.16
148.451, -0.60
148.452, -0.28
148.456, 0.60
148.548, 0.51
148.552, -0.44
148.555, -1.04
148.656, 0.57
148.747, 0.62
148.755, -0.86
148.756, -1.13
148.856, 0.62
148.947, 0.56
149.050, -0.58
149.052, -0.30
149.056, 0.66
149.147, 0.58
149.153, -0.61
149.155, -0.98
149.251, -0.46
149.251, -0.37
149.256, 0.50
149.257, 0.74
149.257, 0.78
149.347, 0.66
149.352, -0.42
149.354, -0.85
149.456, 0.66
149.547, 0.60
149.552, -0.50
149.553, -0.75
149.647, -1.24
149.647, -1.14
149.656, 0.57
149.747, 0.67
149.850, -0.76
149.850, -0.67
149.856, 0.62
149.948, 0.45
150.050, -0.63
150.051, -0.40
150.056, 0.64
150.148, 0.52
150.152, -0.24
150.154, -0.86
150.155, -0.98
150.156, -1.12
150.250, -0.52
150.252, -0.25
150.256, 0.54
150.348, 0.39
150.353, -0.75
150.356, -1.11
150.447, -1.16
150.447, -1.16
150.456, 0.66
150.547, 0.57
150.649, -0.78
150.650, -0.56
150.656, 0.50
150.747, 0.73
150.747, 0.55
150.748, 0.40
150.755, -0.90
150.756, -1.11
150.849, -0.80
150.850, -0.58
150.856, 0.64
150.947, 0.57
150.952, -0.28
150.952, -0.31
150.954, -0.83
150.954, -0.90
151.049, -0.74
151.052, -0.30
151.056, 0.66
151.148, 0.44
151.155, -0.94
151.156, -1.11
151.251, -0.48
151.252, -0.30
151.256, 0.48
151.348, 0.43
151.355, -0.98
151.356, -1.06
151.449, -0.82
151.452, -0.36
151.456, 0.52
151.547, 0.68
151.553, -0.68
151.556, -1.12
151.655, 0.47
151.657, 0.77
151.657, 0.78
151.747, 0.73
151.755, -0.98
151.756, -1.08
151.856, 0.63
151.947, 0.57
152.056, 0.53
152.147, 0.67
152.148, 0.55
152.148, 0.43
152.249, -0.71
152.251, -0.50
152.256, 0.65
152.348, 0.44
152.355, -1.01
152.355, -1.12
152.451, -0.42
152.451, -0.42
152.456, 0.55
152.547, 0.70
152.552, -0.26
152.552, -0.42
152.554, -0.93
152.556, -1.11
152.651, -0.58
152.651, -0.58
152.656, 0.60
152.748, 0.41
152.753, -0.71
152.756, -1.11
152.849, -0.71
152.851, -0.52
152.856, 0.59
152.948, 0.42
152.954, -0.77
152.955, -0.96
153.048, -0.96
153.048, -0.95
153.051, -0.54
153.052, -0.28
153.056, 0.55
153.147, 0.69
153.153, -0.64
153.155, -0.99
153.249, -0.76
153.252, -0.30
153.256, 0.63
153.347, 0.61
153.355, -0.98
153.356, -1.13
153.451, -0.51
153.452, -0.28
153.456, 0.58
153.547, 0.67
153.552, -0.44
153.554, -1.01
153.649, -0.78
153.651, -0.51
153.656, 0.61
153.747, 0.59
153.751, -0.21
153.753, -0.84
153.755, -0.99
153.756, -1.13
153.856, 0.52
153.947, 0.65
153.955, -0.94
153.955, -1.02
154.051, -0.55
154.052, -0.28
154.056, 0.66
154.147, 0.62
154.154, -0.85
154.156, -1.13
154.251, -0.53
154.252, -0.28
154.256, 0.56
154.256, 0.64
154.257, 0.79
154.347, 0.70
154.347, 0.55
154.348, 0.41
154.352, -0.37
154.354, -0.73
154.354, -0.87
154.356, -1.11
154.456, 0.64
154.547, 0.57
154.651, -0.49
154.652, -0.29
154.656, 0.51
154.657, 0.73
154.657, 0.78
154.747, 0.69
154.753, -0.60
154.753, -0.65
154.856, 0.64
154.947, 0.58
154.952, -0.38
154.955, -1.03
155.049, -0.74
155.051, -0.52
155.056, 0.56
155.056, 0.62
155.057, 0.79
155.147, 0.69
155.152, -0.39
155.154, -0.96
155.250, -0.71
155.252, -0.32
155.256, 0.67
155.347, 0.58
155.353, -0.51
155.354, -0.95
155.456, 0.55
155.548, 0.51
155.552, -0.30
155.552, -0.32
155.554, -0.83
155.556, -1.10
155.656, 0.56
155.747, 0.61
155.753, -0.64
155.756, -1.12
155.856, 0.52
155.948, 0.48
156.056, 0.62
156.147, 0.70
156.256, 0.52
156.347, 0.69
156.352, -0.45
156.355, -1.01
156.449, -0.72
156.452, -0.31
156.456, 0.61
156.547, 0.60
156.656, 0.60
156.748, 0.53
156.753, -0.65
156.755, -0.98
156.849, -0.81
156.851, -0.54
156.856, 0.65
156.947, 0.58
156.952, -0.48
156.954, -0.92
157.049, -0.75
157.051, -0.58
157.056, 0.53
157.147, 0.68
157.153, -0.63
157.156, -1.08
157.256, 0.59
157.347, 0.69
157.353, -0.50
157.354, -0.91
157.455, 0.46
157.548, 0.42
157.555, -0.88
157.556, -1.12
157.656, 0.56
157.747, 0.55
157.753, -0.45
157.753, -0.55
157.856, 0.54
157.947, 0.63
157.953, -0.51
157.955, -1.02
158.056, 0.65
158.147, 0.62
158.153, -0.59
158.156, -1.12
158.257, 0.70
158.347, 0.70
158.355, -1.06
158.355, -1.10
158.457, 0.84
158.545, 0.95
158.553, -0.60
158.553, -0.77
158.657, 0.71
158.747, 0.63
158.752, -0.40
158.754, -0.66
158.755, -1.02
158.756, -1.15
158.852, -0.28
158.853, -0.09
158.856, 0.58
158.947, 0.69
158.953, -0.73
158.956, -1.09
159.057, 0.73
159.146, 0.86
159.155, -0.88
159.156, -1.09
159.250, -0.52
159.252, -0.30
159.256, 0.63
159.346, 0.75
159.458, 0.88
159.546, 0.90
159.551, -0.28
159.552, -0.45
159.553, -0.64
159.555, -1.08
159.649, -0.82
159.651, -0.58
159.652, -0.30
159.652, -0.21
159.657, 0.79
159.746, 0.87
159.755, -0.90
159.756, -1.10
159.857, 0.72
159.946, 0.87
159.952, -0.37
159.954, -0.80
160.050, -0.72
160.050, -0.61
160.057, 0.74
160.147, 0.73
160.151, -0.18
160.155, -1.01
160.257, 0.81
160.346, 0.84
160.353, -0.44
160.353, -0.63
160.355, -0.93
160.356, -1.12
160.449, -0.77
160.450, -0.55
160.457, 0.72
160.547, 0.73
160.554, -0.84
160.556, -1.12
160.657, 0.68
160.746, 0.88
160.746, 0.75
160.747, 0.61
160.752, -0.45
160.754, -0.99
160.857, 0.76
160.947, 0.74
161.050, -0.68
161.051, -0.59
161.051, -0.49
161.053, -0.14
161.057, 0.78
161.147, 0.65
161.153, -0.68
161.155, -1.02
161.249, -0.71
161.252, -0.28
161.257, 0.71
161.346, 0.75
161.352, -0.47
161.355, -0.98
161.457, 0.77
161.546, 0.79
161.551, -0.20
161.553, -0.76
161.555, -0.98
161.555, -0.98
161.651, -0.50
161.651, -0.46
161.656, 0.58
161.747, 0.71
161.752, -0.34
161.752, -0.34
161.754, -0.81
161.756, -1.12
161.857, 0.69
161.947, 0.65
162.050, -0.65
162.050, -0.58
162.056, 0.65
162.147, 0.67
162.152, -0.50
162.154, -0.80
162.249, -0.72
162.251, -0.53
162.257, 0.69
162.347, 0.63
162.355, -0.89
162.356, -1.09
162.449, -0.75
162.451, -0.65
162.452, -0.29
162.452, -0.16
162.456, 0.62
162.547, 0.64
162.656, 0.67
162.747, 0.68
162.857, 0.70
162.947, 0.73
162.951, -0.19
162.953, -0.52
162.953, -0.69
162.955, -0.99
163.049, -0.73
163.052, -0.33
163.056, 0.66
163.147, 0.74
163.152, -0.23
163.154, -0.61
163.155, -0.85
163.156, -1.13
163.256, 0.61
163.347, 0.66
163.355, -0.90
163.356, -1.06
163.450, -0.48
163.452, -0.25
163.457, 0.71
163.547, 0.58
163.553, -0.76
163.555, -0.95
163.656, 0.55
163.747, 0.70
163.753, -0.51
163.753, -0.71
163.755, -0.90
163.756, -1.11
163.856, 0.63
163.947, 0.61
163.952, -0.23
163.952, -0.36
164.056, 0.52
164.147, 0.70
164.153, -0.68
164.156, -1.08
164.250, -0.57
164.251, -0.36
164.257, 0.68
164.347, 0.58
164.352, -0.46
164.354, -0.68
164.354, -0.82
164.356, -1.11
164.450, -0.63
164.452, -0.33
164.456, 0.62
164.548, 0.45
164.553, -0.67
164.556, -1.09
164.649, -0.79
164.652, -0.35
164.656, 0.61
164.748, 0.53
164.755, -0.89
164.756, -1.11
164.850, -0.53
164.852, -0.28
164.856, 0.56
164.947, 0.68
164.952, -0.32
164.954, -0.72
164.954, -0.80
164.956, -1.10
165.049, -0.78
165.051, -0.51
165.057, 0.68
165.147, 0.61
165.152, -0.41
165.154, -0.71
165.256, 0.58
165.347, 0.57
165.352, -0.42
165.354, -0.68
165.354, -0.76
165.356, -1.13
165.449, -0.78
165.452, -0.26
165.456, 0.66
165.547, 0.60
165.552, -0.41
165.553, -0.71
165.656, 0.56
165.747, 0.66
165.753, -0.76
165.756, -1.14
165.856, 0.60
165.947, 0.57
165.952, -0.38
165.955, -0.94
166.056, 0.63
166.147, 0.61
166.154, -0.77
166.155, -0.93
166.256, 0.58
166.347, 0.56
166.353, -0.80
166.354, -1.02
166.456, 0.61
166.548, 0.54
166.656, 0.60
166.747, 0.56
166.752, -0.23
166.753, -0.59
166.754, -0.87
166.756, -1.14
166.849, -0.82
166.851, -0.55
166.856, 0.48
166.948, 0.44
166.952, -0.43
166.953, -0.69
167.049, -0.69
167.050, -0.57
167.056, 0.67
167.148, 0.53
167.155, -0.93
167.156, -1.16
167.256, 0.52
167.348, 0.42
167.353, -0.56
167.353, -0.64
167.355, -0.89
167.356, -1.10
167.456, 0.66
167.548, 0.44
167.552, -0.37
167.555, -1.02
167.656, 0.59
167.747, 0.59
167.754, -1.07
167.756, -1.17
167.856, 0.51
167.948, 0.48
167.952, -0.39
167.955, -1.10
168.050, -0.73
168.052, -0.28
168.056, 0.64
168.146, 0.85
168.146, 0.82
168.147, 0.55
168.152, -0.26
168.152, -0.32
168.255, 0.46
168.347, 0.56
168.352, -0.41
168.353, -0.69
168.451, -0.55
168.451, -0.46
168.456, 0.52
168.547, 0.58
168.556, -1.17
168.556, -1.18
168.649, -0.74
168.651, -0.45
168.656, 0.60
168.747, 0.58
168.753, -0.57
168.756, -1.19
168.855, 0.39
168.947, 0.59
168.952, -0.50
168.955, -0.98
168.956, -1.13
168.956, -1.20
169.049, -0.73
169.051, -0.33
169.056, 0.50
169.148, 0.48
169.153, -0.63
169.154, -0.95
169.156, -1.17
169.156, -1.22
169.249, -0.77
169.250, -0.61
169.256, 0.50
169.347, 0.67
169.348, 0.49
169.348, 0.45
169.352, -0.44
169.355, -1.07
169.456, 0.61
169.548, 0.47
169.553, -0.67
169.556, -1.17
169.656, 0.52
169.748, 0.45
169.755, -1.00
169.755, -1.04
169.855, 0.35
169.947, 0.59
169.952, -0.36
169.953, -0.79
170.049, -0.77
170.050, -0.63
170.056, 0.52
170.147, 0.72
170.251, -0.64
170.252, -0.31
170.256, 0.48
170.347, 0.58
170.353, -0.58
170.356, -1.10
170.449, -0.70
170.450, -0.56
170.455, 0.42
170.548, 0.54
170.553, -0.70
170.555, -1.05
170.651, -0.55
170.652, -0.32
170.655, 0.47
170.748, 0.45
170.755, -1.06
170.756, -1.16
170.851, -0.56
170.852, -0.28
170.856, 0.53
170.947, 0.63
170.953, -0.62
170.954, -0.91
170.957, -1.32
170.957, -1.34
171.050, -0.74
171.050, -0.62
171.056, 0.49
171.147, 0.65
171.152, -0.26
171.152, -0.32
171.155, -0.94
171.156, -1.13
171.251, -0.48
171.252, -0.31
171.255, 0.45
171.348, 0.46
171.352, -0.32
171.356, -1.12
171.357, -1.32
171.357, -1.34
171.449, -0.71
171.452, -0.29
171.456, 0.60
171.548, 0.55
171.649, -0.81
171.651, -0.56
171.655, 0.47
171.748, 0.44
171.752, -0.45
171.756, -1.07
171.856, 0.56
171.947, 0.63
171.953, -0.76
171.955, -1.07
172.049, -0.70
172.050, -0.54
172.056, 0.53
172.147, 0.55
172.153, -0.69
172.155, -1.07
172.251, -0.59
172.252, -0.28
172.256, 0.50
172.347, 0.68
172.347, 0.56
172.348, 0.42
172.355, -0.93
172.356, -1.09
172.449, -0.71
172.450, -0.50
172.455, 0.47
172.548, 0.42
172.557, -1.33
172.557, -1.33
172.656, 0.58
172.748, 0.53
172.849, -0.74
172.851, -0.45
172.856, 0.55
172.947, 0.58
172.952, -0.49
172.954, -0.84
172.954, -0.88
172.956, -1.10
173.049, -0.76
173.052, -0.28
173.055, 0.43
173.147, 0.55
173.153, -0.76
173.154, -1.05
173.249, -0.81
173.251, -0.58
173.256, 0.53
173.348, 0.48
173.353, -0.69
173.355, -1.02
173.456, 0.50
173.548, 0.40
173.552, -0.46
173.555, -0.97
173.656, 0.49
173.748, 0.48
173.755, -1.00
173.755, -1.06
173.849, -0.77
173.851, -0.53
173.856, 0.59
173.948, 0.50
173.953, -0.64
173.955, -0.96
174.049, -0.77
174.052, -0.27
174.056, 0.49
174.147, 0.66
174.152, -0.45
174.153, -0.79
174.155, -0.97
174.156, -1.11
174.256, 0.56
174.348, 0.49
174.352, -0.25
174.352, -0.33
174.451, -0.54
174.452, -0.30
174.456, 0.63
174.547, 0.55
174.553, -0.64
174.555, -1.00
174.649, -0.81
174.651, -0.57
174.656, 0.62
174.748, 0.47
174.752, -0.30
174.752, -0.35
174.754, -0.66
174.754, -0.94
174.851, -0.42
174.851, -0.34
174.855, 0.46
174.947, 0.64
175.049, -0.74
175.051, -0.62
175.056, 0.53
175.148, 0.42
175.152, -0.42
175.155, -1.00
175.250, -0.66
175.250, -0.54
175.256, 0.63
175.347, 0.56
175.352, -0.42
175.355, -0.97
175.456, 0.49
175.548, 0.43
175.553, -0.51
175.556, -1.10
175.650, -0.54
175.652, -0.27
175.656, 0.54
175.747, 0.61
175.752, -0.41
175.753, -0.69
175.855, 0.48
175.948, 0.54
176.049, -0.74
176.052, -0.30
176.056, 0.58
176.147, 0.56
176.251, -0.43
176.251, -0.33
176.256, 0.55
176.348, 0.54
176.354, -0.80
176.356, -1.11
176.456, 0.56
176.547, 0.65
176.555, -0.98
176.556, -1.12
176.651, -0.44
176.652, -0.30
176.656, 0.60
176.748, 0.45
176.849, -0.73
176.852, -0.26
176.856, 0.58
176.948, 0.45
176.952, -0.29
176.952, -0.33
176.953, -0.68
176.956, -1.12
177.056, 0.59
177.148, 0.46
177.153, -0.66
177.155, -1.04
177.255, 0.44
177.257, 0.77
177.257, 0.77
177.347, 0.55
177.352, -0.43
177.353, -0.77
177.357, -1.37
177.359, -1.67
177.455, 0.40
177.549, 0.33
177.655, 0.35
177.655, 0.45
177.656, 0.61
177.748, 0.51
177.752, -0.36
177.753, -0.65
177.755, -1.04
177.755, -1.10
177.851, -0.46
177.852, -0.25
177.856, 0.48
177.947, 0.60
177.953, -0.64
177.955, -1.07
178.056, 0.58
178.147, 0.68
178.152, -0.44
178.155, -1.04
178.256, 0.65
178.347, 0.64
178.352, -0.21
178.352, -0.35
178.353, -0.61
178.355, -0.94
178.449, -0.73
178.451, -0.62
178.457, 0.74
178.546, 0.75
178.552, -0.36
178.554, -0.95
178.656, 0.66
178.747, 0.69
178.754, -0.75
178.755, -0.95
178.856, 0.56
178.948, 0.51
178.952, -0.50
178.954, -0.77
179.056, 0.66
179.147, 0.58
179.152, -0.48
179.155, -0.97
179.250, -0.54
179.252, -0.13
179.256, 0.62
179.346, 0.82
179.351, -0.19
179.353, -0.59
179.355, -0.99
179.355, -1.08
179.450, -0.57
179.452, -0.27
179.457, 0.80
179.546, 0.76
179.552, -0.29
179.553, -0.65
179.650, -0.59
179.652, -0.32
179.657, 0.76
179.746, 0.77
179.857, 0.70
179.946, 0.86
179.947, 0.66
179.947, 0.64
179.952, -0.29
179.952, -0.50
180.057, 0.70
180.147, 0.68
180.152, -0.38
180.153, -0.83
180.155, -1.00
180.156, -1.11
180.249, -0.81
180.251, -0.66
180.257, 0.77
180.347, 0.65
180.355, -0.93
180.355, -1.04
180.449, -0.73
180.452, -0.19
180.457, 0.70
180.547, 0.74
180.551, -0.20
180.552, -0.43
180.554, -0.73
180.556, -1.11
180.657, 0.77
180.747, 0.63
180.856, 0.63
180.947, 0.63
180.953, -0.59
180.954, -1.04
181.049, -0.81
181.051, -0.52
181.052, -0.25
181.052, -0.18
181.056, 0.57
181.056, 0.65
181.057, 0.77
181.146, 0.75
181.151, -0.23
181.153, -0.84
181.249, -0.79
181.250, -0.62
181.257, 0.76
181.347, 0.69
181.353, -0.75
181.355, -1.05
181.450, -0.70
181.451, -0.41
181.457, 0.71
181.547, 0.66
181.553, -0.43
181.556, -1.12
181.649, -0.79
181.652, -0.33
181.656, 0.67
181.747, 0.62
181.754, -0.88
181.756, -1.12
181.849, -0.75
181.851, -0.52
181.856, 0.66
181.947, 0.63
181.952, -0.33
181.953, -0.80
182.049, -0.78
182.052, -0.24
182.056, 0.65
182.146, 0.75
182.152, -0.26
182.153, -0.72
182.251, -0.60
182.252, -0.27
182.256, 0.58
182.347, 0.58
182.352, -0.26
182.352, -0.48
182.354, -0.80
182.354, -0.82
182.456, 0.67
182.547, 0.64
182.652, -0.32
182.652, -0.15
182.656, 0.66
182.748, 0.53
182.753, -0.48
182.755, -0.99
182.850, -0.66
182.852, -0.27
182.856, 0.58
182.947, 0.61
183.056, 0.57
183.147, 0.65
183.153, -0.75
183.155, -1.09
183.256, 0.60
183.347, 0.73
183.351, -0.21
183.352, -0.35
183.354, -0.98
183.356, -1.12
183.456, 0.61
183.548, 0.48
183.554, -0.80
183.556, -1.11
183.656, 0.57
183.747, 0.66
183.752, -0.26
183.752, -0.35
183.754, -0.84
183.756, -1.11
183.849, -0.81
183.852, -0.31
183.856, 0.61
183.947, 0.56
183.952, -0.26
183.952, -0.40
183.953, -0.62
183.955, -1.05
184.056, 0.56
184.148, 0.51
184.153, -0.77
184.155, -1.07
184.256, 0.63
184.348, 0.48
184.352, -0.33
184.353, -0.70
184.456, 0.63
184.547, 0.61
184.555, -0.95
184.555, -1.02
184.650, -0.71
184.650, -0.66
184.656, 0.54
184.748, 0.49
184.755, -1.02
184.755, -1.08
184.856, 0.53
184.947, 0.67
184.955, -0.90
184.956, -1.12
185.056, 0.51
185.147, 0.70
185.153, -0.79
185.155, -0.96
185.249, -0.74
185.250, -0.55
185.256, 0.66
185.348, 0.50
185.449, -0.74
185.450, -0.64
185.456, 0.62
185.547, 0.67
185.554, -0.86
185.555, -0.96
185.651, -0.50
185.652, -0.30
185.656, 0.63
185.747, 0.59
185.753, -0.61
185.754, -0.95
185.849, -0.80
185.851, -0.55
185.856, 0.50
185.948, 0.48
185.954, -0.95
185.954, -0.98
186.055, 0.43
186.148, 0.48
186.154, -0.80
186.154, -0.99
186.247, -1.22
186.247, -1.19
186.255, 0.46
186.348, 0.53
186.456, 0.60
186.547, 0.56
186.551, -0.22
186.553, -0.72
186.656, 0.60
186.748, 0.54
186.754, -0.93
186.756, -1.14
186.856, 0.48
186.948, 0.52
186.952, -0.47
186.956, -1.10
187.047, -1.20
187.047, -1.16
187.050, -0.50
187.052, -0.25
187.056, 0.51
187.147, 0.55
187.155, -0.87
187.156, -1.12
187.255, 0.45
187.347, 0.71
187.348, 0.52
187.348, 0.43
187.455, 0.35
187.455, 0.47
187.456, 0.63
187.548, 0.46
187.552, -0.42
187.553, -0.75
187.555, -0.93
187.556, -1.08
187.651, -0.45
187.651, -0.34
187.656, 0.61
187.748, 0.43
187.856, 0.60
187.948, 0.40
188.051, -0.58
188.052, -0.29
188.057, 0.79
188.148, 0.50
188.152, -0.27
188.152, -0.36
188.155, -1.03
188.156, -1.12
188.249, -0.78
188.252, -0.28
188.256, 0.51
188.347, 0.69
188.456, 0.49
188.548, 0.38
188.656, 0.61
188.747, 0.63
188.849, -0.78
188.852, -0.32
188.856, 0.54
188.949, 0.26
188.952, -0.45
188.954, -0.89
189.049, -0.71
189.051, -0.49
189.056, 0.58
189.148, 0.54
189.155, -0.97
189.156, -1.06
189.250, -0.75
189.251, -0.47
189.255, 0.46
189.349, 0.33
189.352, -0.26
189.352, -0.31
189.449, -0.75
189.452, -0.26
189.456, 0.50
189.548, 0.43
189.554, -0.72
189.555, -1.02
189.649, -0.75
189.651, -0.48
189.656, 0.55
189.748, 0.37
189.752, -0.34
189.754, -0.98
189.856, 0.59
189.948, 0.41
189.952, -0.26
189.952, -0.34
189.954, -0.72
189.954, -0.87
190.049, -0.77
190.051, -0.50
190.056, 0.59
190.148, 0.41
190.154, -0.72
190.155, -0.98
190.249, -0.73
190.252, -0.29
190.256, 0.58
190.348, 0.52
190.353, -0.72
190.355, -0.98
190.449, -0.72
190.450, -0.54
190.456, 0.59
190.548, 0.53
190.555, -0.97
190.556, -1.10
190.651, -0.49
190.652, -0.28
190.656, 0.57
190.748, 0.47
190.856, 0.53
190.948, 0.42
191.049, -0.77
191.052, -0.28
191.056, 0.51
191.148, 0.52
191.153, -0.74
191.155, -0.93
191.250, -0.59
191.251, -0.34
191.256, 0.49
191.348, 0.52
191.354, -0.95
191.356, -1.10
191.449, -0.81
191.451, -0.46
191.456, 0.65
191.547, 0.58
191.552, -0.40
191.554, -0.99
191.655, 0.45
191.748, 0.52
191.752, -0.41
191.754, -0.72
191.754, -0.86
191.756, -1.12
191.850, -0.66
191.852, -0.26
191.855, 0.38
191.855, 0.46
191.856, 0.61
191.948, 0.51
191.952, -0.39
191.956, -1.12
192.056, 0.51
192.148, 0.51
192.153, -0.66
192.155, -1.05
192.256, 0.54
192.348, 0.53
192.352, -0.27
192.353, -0.77
192.449, -0.75
192.452, -0.26
192.456, 0.54
192.547, 0.67
192.548, 0.52
192.548, 0.42
192.553, -0.52
192.553, -0.74
192.656, 0.48
192.747, 0.65
192.747, 0.58
192.748, 0.44
192.752, -0.22
192.752, -0.34
192.753, -0.71
192.756, -1.10
192.850, -0.74
192.851, -0.45
192.856, 0.59
192.948, 0.45
192.953, -0.70
192.955, -1.01
193.056, 0.59
193.148, 0.45
193.153, -0.58
193.155, -0.98
193.256, 0.59
193.347, 0.58
193.353, -0.68
193.355, -1.00
193.449, -0.82
193.451, -0.59
193.456, 0.53
193.548, 0.51
193.554, -0.68
193.556, -1.12
193.650, -0.53
193.652, -0.26
193.656, 0.49
193.747, 0.55
193.752, -0.24
193.756, -1.11
193.856, 0.51
193.948, 0.43
193.952, -0.40
193.953, -0.79
194.056, 0.48
194.147, 0.64
194.153, -0.61
194.153, -0.71
194.249, -0.81
194.251, -0.52
194.256, 0.48
194.348, 0.41
194.352, -0.40
194.355, -0.98
194.456, 0.55
194.548, 0.43
194.552, -0.25
194.555, -1.04
194.650, -0.63
194.652, -0.30
194.656, 0.53
194.748, 0.44
194.753, -0.72
194.756, -1.12
194.856, 0.58
194.947, 0.55
194.952, -0.42
194.953, -0.75
194.955, -0.97
194.956, -1.12
195.049, -0.74
195.051, -0.54
195.056, 0.61
195.148, 0.52
195.152, -0.42
195.156, -1.09
195.256, 0.52
195.347, 0.59
195.352, -0.28
195.353, -0.81
195.456, 0.50
195.548, 0.52
195.555, -0.95
195.555, -1.00
195.651, -0.66
195.652, -0.28
195.656, 0.53
195.748, 0.43
195.752, -0.42
195.754, -0.92
195.850, -0.61
195.852, -0.30
195.856, 0.61
195.948, 0.54
195.952, -0.26
195.953, -0.69
196.051, -0.47
196.052, -0.30
196.056, 0.49
196.148, 0.51
196.255, 0.43
196.348, 0.50
196.352, -0.38
196.354, -0.88
196.450, -0.66
196.452, -0.26
196.456, 0.53
196.547, 0.65
196.655, 0.45
196.748, 0.42
196.751, -0.22
196.756, -1.10
196.849, -0.77
196.851, -0.56
196.856, 0.48
196.948, 0.43
196.952, -0.37
196.956, -1.11
197.055, 0.47
197.147, 0.55
197.155, -0.95
197.156, -1.10
197.256, 0.52
197.347, 0.57
197.352, -0.28
197.352, -0.31
197.455, 0.41
197.548, 0.50
197.551, -0.24
197.554, -0.94
197.650, -0.51
197.652, -0.27
197.656, 0.57
197.747, 0.74
197.753, -0.78
197.755, -1.08
197.851, -0.51
197.852, -0.20
197.857, 0.81
197.947, 0.63
197.951, -0.24
197.954, -0.86
198.050, -0.52
198.053, -0.10
198.056, 0.61
198.147, 0.67
198.151, -0.22
198.152, -0.46
198.154, -0.90
198.154, -1.02
198.257, 0.70
198.347, 0.59
198.355, -0.93
198.356, -1.11
198.456, 0.64
198.547, 0.59
198.553, -0.54
198.553, -0.64
198.555, -0.99
198.556, -1.13
198.656, 0.59
198.748, 0.54
198.751, -0.22
198.752, -0.35
198.754, -0.76
198.755, -1.02
198.852, -0.31
198.853, -0.11
198.856, 0.53
198.948, 0.53
199.056, 0.61
199.148, 0.48
199.153, -0.86
199.155, -1.01
199.251, -0.35
199.253, -0.09
199.256, 0.66
199.347, 0.72
199.351, -0.21
199.353, -0.67
199.457, 0.82
199.547, 0.70
199.554, -0.71
199.555, -1.03
199.650, -0.62
199.653, -0.13
199.657, 0.69
199.747, 0.61
199.751, -0.23
199.754, -0.77
199.755, -0.91
199.756, -1.09
199.856, 0.61
199.947, 0.65
199.954, -0.88
199.956, -1.17
200.050, -0.85
200.050, -0.75
200.051, -0.42
200.053, -0.12
200.056, 0.67
200.147, 0.62
200.153, -0.69
200.154, -0.99
200.256, 0.56
200.347, 0.59
200.352, -0.31
200.352, -0.32
200.354, -0.83
200.354, -0.97
200.451, -0.60
200.451, -0.43
200.456, 0.64
200.547, 0.57
200.551, -0.19
200.553, -0.43
200.553, -0.69
200.555, -0.96
200.649, -0.71
200.650, -0.59
200.656, 0.58
200.748, 0.51
200.752, -0.38
200.755, -0.97
200.856, 0.55
200.948, 0.55
200.954, -0.98
200.956, -1.16
201.050, -0.64
201.052, -0.28
201.056, 0.53
201.147, 0.58
201.152, -0.25
201.152, -0.37
201.249, -0.83
201.251, -0.55
201.252, -0.31
201.253, -0.15
201.256, 0.56
201.348, 0.51
201.352, -0.43
201.355, -0.95
201.452, -0.31
201.452, -0.16
201.456, 0.55
201.547, 0.67
201.553, -0.46
201.553, -0.53
201.555, -0.94
201.555, -1.05
201.649, -0.78
201.650, -0.56
201.655, 0.44
201.748, 0.45
201.751, -0.20
201.752, -0.44
201.855, 0.46
201.948, 0.49
201.953, -0.63
201.954, -1.01
202.056, 0.62
202.148, 0.53
202.255, 0.48
202.348, 0.51
202.352, -0.23
202.352, -0.39
202.456, 0.59
202.548, 0.50
202.553, -0.44
202.553, -0.56
202.656, 0.50
202.747, 0.57
202.752, -0.42
202.756, -1.16
202.855, 0.47
202.948, 0.42
202.953, -0.70
202.956, -1.19
203.056, 0.55
203.148, 0.45
203.152, -0.43
203.153, -0.62
203.156, -1.18
203.156, -1.19
203.255, 0.44
203.348, 0.48
203.351, -0.23
203.355, -1.05
203.449, -0.72
203.452, -0.22
203.456, 0.60
203.548, 0.48
203.553, -0.77
203.556, -1.09
203.650, -0.81
203.650, -0.74
203.652, -0.23
203.652, -0.20
203.656, 0.49
203.748, 0.50
203.753, -0.67
203.756, -1.11
203.849, -0.70
203.851, -0.51
203.856, 0.55
203.948, 0.51
203.951, -0.22
203.952, -0.44
203.954, -0.92
203.956, -1.14
204.049, -0.78
204.052, -0.32
204.055, 0.44
204.148, 0.52
204.152, -0.39
204.155, -1.01
204.250, -0.56
204.251, -0.42
204.256, 0.59
204.348, 0.54
204.352, -0.44
204.355, -0.99
204.449, -0.76
204.450, -0.54
204.456, 0.51
204.548, 0.47
204.555, -0.93
204.556, -1.14
204.649, -0.72
204.651, -0.54
204.652, -0.27
204.652, -0.15
204.656, 0.48
204.748, 0.50
204.855, 0.46
204.948, 0.49
204.953, -0.50
204.954, -0.87
205.056, 0.50
205.148, 0.44
205.153, -0.80
205.155, -1.08
205.249, -0.72
205.251, -0.57
205.256, 0.57
205.348, 0.41
205.352, -0.28
205.352, -0.33
205.451, -0.52
205.452, -0.34
205.456, 0.58
205.547, 0.61
205.552, -0.34
205.555, -1.05
205.656, 0.54
205.748, 0.47
205.752, -0.31
205.756, -1.07
205.856, 0.48
205.948, 0.55
205.953, -0.67
205.954, -0.95
206.051, -0.64
206.052, -0.24
206.055, 0.38
206.148, 0.45
206.152, -0.41
206.153, -0.66
206.249, -0.72
206.251, -0.52
206.255, 0.44
206.348, 0.38
206.354, -0.91
206.356, -1.12
206.450, -0.77
206.452, -0.32
206.455, 0.44
206.548, 0.47
206.552, -0.44
206.555, -1.07
206.655, 0.45
206.748, 0.41
206.755, -0.92
206.756, -1.08
206.849, -0.80
206.851, -0.52
206.856, 0.50
206.948, 0.44
207.049, -0.81
207.051, -0.60
207.055, 0.40
207.148, 0.45
207.152, -0.35
207.153, -0.74
207.255, 0.42
207.348, 0.41
207.352, -0.24
207.352, -0.34
207.353, -0.71
207.355, -1.05
207.450, -0.68
207.450, -0.62
207.455, 0.44
207.548, 0.47
207.552, -0.40
207.555, -1.00
207.655, 0.41
207.748, 0.51
207.754, -0.72
207.755, -1.04
207.855, 0.39
207.948, 0.47
207.952, -0.43
207.953, -0.72
207.955, -1.03
207.955, -1.09
208.051, -0.45
208.051, -0.40
208.055, 0.39
208.149, 0.35
208.255, 0.40
208.348, 0.48
208.355, -1.04
208.355, -1.07
208.449, -0.77
208.451, -0.60
208.455, 0.45
208.548, 0.36
208.656, 0.50
208.748, 0.42
208.753, -0.66
208.756, -1.09
208.855, 0.45
208.948, 0.45
208.952, -0.30
208.952, -0.32
209.056, 0.49
209.148, 0.43
209.154, -0.99
209.156, -1.09
209.250, -0.55
209.251, -0.29
209.255, 0.47
209.348, 0.47
209.456, 0.48
209.548, 0.40
209.552, -0.26
209.552, -0.46
209.553, -0.69
209.556, -1.11
209.651, -0.51
209.652, -0.33
209.655, 0.47
209.748, 0.42
209.753, -0.66
209.756, -1.10
209.855, 0.42
209.948, 0.39
209.952, -0.36
209.955, -1.01
210.055, 0.39
210.148, 0.47
210.153, -0.67
210.155, -0.97
210.250, -0.65
210.252, -0.27
210.255, 0.45
210.348, 0.48
210.352, -0.43
210.354, -0.87
210.355, -1.03
210.355, -1.04
210.451, -0.56
210.451, -0.41
210.455, 0.42
210.548, 0.39
210.552, -0.27
210.552, -0.34
210.555, -0.88
210.556, -1.12
210.655, 0.43
210.748, 0.42
210.753, -0.66
210.756, -1.12
210.849, -0.78
210.851, -0.52
210.855, 0.45
210.948, 0.40
210.952, -0.25
210.952, -0.37
210.955, -0.91
210.956, -1.10
211.049, -0.72
211.051, -0.56
211.055, 0.43
211.148, 0.39
211.255, 0.39
211.348, 0.39
211.352, -0.39
211.353, -0.75
211.455, 0.41
211.548, 0.45
211.552, -0.41
211.555, -0.99
211.650, -0.57
211.652, -0.25
211.655, 0.44
211.748, 0.39
211.752, -0.28
211.754, -0.81
211.755, -1.01
211.756, -1.10
211.849, -0.71
211.852, -0.31
211.855, 0.37
211.948, 0.41
212.055, 0.41
212.148, 0.45
212.154, -0.70
212.154, -0.92
212.256, 0.49
212.348, 0.42
212.352, -0.42
212.355, -0.99
212.455, 0.46
212.548, 0.48
212.553, -0.61
212.555, -0.93
212.655, 0.46
212.748, 0.47
212.753, -0.66
212.755, -0.98
212.850, -0.51
212.852, -0.26
212.855, 0.41
212.948, 0.46
212.954, -0.82
212.956, -1.11
213.049, -0.81
213.051, -0.50
213.055, 0.46
213.149, 0.33
213.154, -0.68
213.154, -0.81
213.255, 0.44
213.348, 0.52
213.352, -0.52
213.353, -0.81
213.450, -0.63
213.452, -0.31
213.455, 0.46
213.549, 0.35
213.655, 0.47
213.748, 0.46
213.855, 0.37
213.949, 0.34
214.055, 0.46
214.148, 0.39
214.153, -0.52
214.153, -0.73
214.255, 0.43
214.349, 0.35
214.352, -0.28
214.352, -0.32
214.455, 0.46
214.548, 0.43
214.552, -0.40
214.555, -1.01
214.651, -0.63
214.652, -0.28
214.655, 0.44
214.748, 0.41
214.752, -0.29
214.754, -0.71
214.755, -0.85
214.755, -1.06
214.851, -0.51
214.852, -0.32
214.855, 0.35
214.948, 0.37
214.952, -0.41
214.954, -0.71
215.055, 0.45
215.148, 0.42
215.152, -0.31
215.156, -1.12
215.255, 0.33
215.348, 0.37
215.352, -0.26
215.352, -0.31
215.355, -1.02
215.356, -1.15
215.451, -0.56
215.452, -0.31
215.455, 0.31
215.548, 0.45
215.554, -0.94
215.556, -1.11
215.651, -0.62
215.652, -0.28
215.655, 0.32
215.748, 0.49
215.850, -0.76
215.852, -0.31
215.855, 0.32
215.948, 0.38
215.952, -0.48
215.956, -1.12
216.055, 0.32
216.148, 0.37
216.152, -0.40
216.154, -1.06
216.249, -0.82
216.252, -0.28
216.255, 0.44
216.348, 0.51
216.354, -1.01
216.356, -1.09
216.449, -0.79
216.451, -0.37
216.455, 0.30
216.548, 0.41
216.651, -0.60
216.652, -0.29
216.655, 0.42
216.749, 0.32
216.755, -1.03
216.755, -1.06
216.849, -0.74
216.850, -0.60
216.855, 0.37
216.948, 0.36
217.049, -0.71
217.051, -0.58
217.055, 0.38
217.149, 0.28
217.154, -0.71
217.154, -0.84
217.249, -0.72
217.251, -0.49
217.255, 0.34
217.348, 0.48
217.352, -0.29
217.352, -0.31
217.355, -1.06
217.356, -1.12
217.357, -1.30
217.359, -1.67
217.450, -0.53
217.452, -0.32
217.456, 0.50
217.547, 0.55
217.552, -0.48
217.554, -0.71
217.656, 0.59
217.747, 0.66
217.751, -0.22
217.754, -1.07
217.852, -0.28
217.852, -0.20
217.856, 0.62
217.948, 0.50
218.056, 0.57
218.148, 0.54
218.154, -0.81
218.155, -1.01
218.250, -0.50
218.253, -0.11
218.256, 0.55
218.347, 0.60
218.450, -0.59
218.452, -0.34
218.456, 0.61
218.547, 0.58
218.554, -0.80
218.555, -1.06
218.656, 0.56
218.748, 0.51
218.751, -0.23
218.752, -0.47
218.753, -0.73
218.754, -0.97
218.848, -1.02
218.848, -0.91
218.856, 0.62
218.948, 0.52
218.952, -0.44
218.953, -0.72
219.050, -0.58
219.052, -0.39
219.056, 0.62
219.147, 0.63
219.155, -0.95
219.156, -1.07
219.256, 0.58
219.347, 0.59
219.352, -0.45
219.354, -0.71
219.355, -0.90
219.356, -1.11
219.450, -0.59
219.452, -0.32
219.457, 0.69
219.548, 0.54
219.552, -0.33
219.554, -0.78
219.649, -0.70
219.652, -0.38
219.656, 0.60
219.747, 0.57
219.752, -0.47
219.755, -1.00
219.848, -1.01
219.848, -0.99
219.856, 0.55
219.947, 0.56
219.951, -0.22
219.952, -0.45
220.056, 0.57
220.148, 0.54
220.249, -0.80
220.250, -0.68
220.252, -0.28
220.253, -0.09
220.256, 0.56
220.348, 0.54
220.352, -0.41
220.355, -0.96
220.456, 0.55
220.548, 0.54
220.650, -0.57
220.652, -0.32
220.656, 0.49
220.748, 0.55
220.753, -0.70
220.756, -1.12
220.856, 0.60
220.948, 0.51
220.951, -0.21
220.953, -0.68
220.955, -0.92
220.956, -1.11
221.049, -0.74
221.050, -0.62
221.052, -0.28
221.052, -0.14
221.056, 0.48
221.148, 0.45
221.152, -0.40
221.156, -1.10
221.249, -0.80
221.251, -0.59
221.255, 0.46
221.348, 0.52
221.352, -0.25
221.355, -0.97
221.449, -0.67
221.452, -0.30
221.455, 0.46
221.549, 0.35
221.552, -0.43
221.554, -1.06
221.655, 0.43
221.748, 0.43
221.849, -0.79
221.852, -0.34
221.856, 0.48
221.948, 0.45
221.952, -0.35
221.954, -0.88
222.049, -0.76
222.050, -0.58
222.055, 0.40
222.148, 0.46
222.152, -0.43
222.154, -0.96
222.251, -0.52
222.252, -0.28
222.255, 0.44
222.348, 0.46
222.353, -0.46
222.355, -1.01
222.455, 0.47
222.548, 0.42
222.553, -0.48
222.555, -1.07
222.649, -0.76
222.651, -0.56
222.656, 0.48
222.748, 0.47
222.752, -0.44
222.753, -0.70
222.855, 0.45
222.948, 0.49
223.049, -0.74
223.052, -0.37
223.056, 0.50
223.148, 0.39
223.152, -0.40
223.156, -1.12
223.256, 0.49
223.348, 0.43
223.451, -0.60
223.452, -0.27
223.455, 0.41
223.549, 0.35
223.555, -0.88
223.556, -1.11
223.649, -0.78
223.651, -0.49
223.656, 0.47
223.748, 0.43
223.752, -0.39
223.754, -0.89
223.855, 0.34
223.948, 0.38
223.952, -0.39
223.953, -0.81
224.055, 0.36
224.148, 0.42
224.152, -0.27
224.152, -0.31
224.250, -0.62
224.252, -0.27
224.255, 0.40
224.348, 0.41
224.352, -0.31
224.352, -0.33
224.455, 0.39
224.548, 0.39
224.553, -0.72
224.555, -1.01
224.649, -0.76
224.651, -0.54
224.655, 0.39
224.748, 0.41
224.751, -0.22
224.752, -0.35
224.849, -0.77
224.851, -0.52
224.855, 0.43
224.948, 0.36
224.953, -0.68
224.954, -0.98
225.050, -0.49
225.052, -0.26
225.055, 0.34
225.149, 0.29
225.153, -0.47
225.156, -1.10
225.250, -0.78
225.250, -0.67
225.255, 0.41
225.349, 0.32
225.354, -0.82
225.354, -0.85
225.449, -0.82
225.451, -0.57
225.455, 0.39
225.548, 0.43
225.554, -0.77
225.555, -0.99
225.655, 0.35
225.748, 0.42
225.753, -0.49
225.753, -0.70
225.855, 0.44
225.948, 0.40
225.953, -0.61
225.956, -1.10
226.050, -0.50
226.052, -0.27
226.055, 0.38
226.148, 0.37
226.152, -0.38
226.156, -1.12
226.249, -0.79
226.251, -0.47
226.255, 0.35
226.348, 0.46
226.354, -0.77
226.355, -0.93
226.451, -0.40
226.451, -0.35
226.455, 0.31
226.548, 0.44
226.654, 0.28
226.749, 0.35
226.851, -0.49
226.852, -0.34
226.855, 0.36
226.948, 0.38
226.955, -0.97
226.956, -1.11
227.055, 0.38
227.149, 0.34
227.152, -0.22
227.154, -0.73
227.154, -0.85
227.155, -1.03
227.249, -0.77
227.252, -0.30
227.255, 0.30
227.349, 0.29
227.352, -0.40
227.354, -0.71
227.354, -0.73
227.356, -1.07
227.454, 0.17
227.455, 0.31
227.455, 0.41
227.548, 0.48
227.553, -0.45
227.553, -0.64
227.655, 0.38
227.748, 0.43
227.851, -0.54
227.852, -0.31
227.855, 0.34
227.948, 0.36
227.953, -0.43
227.953, -0.61
228.049, -0.71
228.052, -0.29
228.055, 0.39
228.149, 0.33
228.155, -0.90
228.156, -1.12
228.249, -0.78
228.251, -0.60
228.254, 0.18
228.349, 0.33
228.354, -0.92
228.354, -0.97
228.455, 0.38
228.548, 0.37
228.554, -0.83
228.556, -1.18
228.651, -0.60
228.652, -0.26
228.654, 0.21
228.748, 0.36
228.752, -0.25
228.752, -0.31
228.754, -0.89
228.754, -0.89
228.850, -0.57
228.852, -0.31
228.855, 0.39
228.949, 0.33
228.952, -0.31
228.952, -0.32
228.955, -0.97
228.956, -1.17
229.055, 0.30
229.148, 0.39
229.152, -0.33
229.154, -0.83
229.255, 0.32
229.349, 0.33
229.455, 0.35
229.548, 0.36
229.553, -0.51
229.553, -0.64
229.655, 0.37
229.749, 0.34
229.850, -0.51
229.852, -0.28
229.855, 0.38
229.948, 0.37
230.054, 0.23
230.148, 0.36
230.152, -0.31
230.155, -1.03
230.255, 0.40
230.349, 0.27
230.352, -0.44
230.356, -1.15
230.455, 0.33
230.549, 0.30
230.552, -0.41
230.553, -0.82
230.555, -1.07
230.556, -1.16
230.654, 0.28
230.749, 0.31
230.753, -0.60
230.755, -1.01
230.850, -0.67
230.852, -0.32
230.855, 0.32
230.948, 0.37
230.952, -0.23
230.952, -0.31
231.049, -0.82
231.051, -0.63
231.054, 0.25
231.149, 0.28
231.153, -0.47
231.155, -0.99
231.255, 0.29
231.349, 0.25
231.352, -0.39
231.355, -1.00
231.455, 0.33
231.548, 0.39
231.655, 0.30
231.748, 0.45
231.752, -0.45
231.754, -0.75
231.754, -0.80
231.756, -1.08
231.849, -0.75
231.851, -0.56
231.855, 0.30
231.949, 0.34
232.055, 0.35
232.149, 0.25
232.153, -0.72
232.154, -0.94
232.255, 0.31
232.349, 0.35
232.352, -0.44
232.353, -0.66
232.455, 0.31
232.549, 0.35
232.552, -0.26
232.555, -0.95
232.649, -0.73
232.651, -0.53
232.655, 0.30
232.749, 0.30
232.752, -0.45
232.756, -1.11
232.851, -0.62
232.852, -0.28
232.855, 0.39
232.948, 0.46
232.952, -0.41
232.955, -1.12
233.049, -0.77
233.051, -0.50
233.055, 0.36
233.149, 0.22
233.153, -0.59
233.155, -1.02
233.251, -0.62
233.252, -0.31
233.255, 0.32
233.348, 0.37
233.352, -0.38
233.356, -1.09
233.455, 0.37
233.549, 0.35
233.554, -0.99
233.556, -1.08
233.655, 0.31
233.749, 0.26
233.752, -0.25
233.753, -0.75
233.755, -0.94
233.756, -1.11
233.855, 0.32
233.949, 0.32
233.955, -0.88
233.956, -1.10
234.055, 0.33
234.149, 0.31
234.154, -0.79
234.156, -1.10
234.250, -0.73
234.252, -0.27
234.255, 0.33
234.349, 0.29
234.353, -0.69
234.355, -1.00
234.455, 0.33
234.548, 0.45
234.548, 0.42
234.549, 0.24
234.552, -0.35
234.553, -0.65
234.655, 0.34
234.749, 0.33
234.754, -0.72
234.756, -1.11
234.849, -0.71
234.851, -0.51
234.855, 0.32
234.949, 0.35
235.055, 0.42
235.149, 0.35
235.152, -0.41
235.154, -0.89
235.255, 0.36
235.349, 0.32
235.451, -0.37
235.451, -0.36
235.455, 0.35
235.548, 0.38
235.553, -0.82
235.556, -1.10
235.650, -0.50
235.652, -0.25
235.655, 0.44
235.749, 0.29
235.752, -0.22
235.755, -1.02
235.855, 0.36
235.949, 0.32
235.952, -0.37
235.956, -1.12
236.051, -0.47
236.051, -0.36
236.055, 0.32
236.148, 0.37
236.152, -0.27
236.152, -0.32
236.154, -0.74
236.154, -1.02
236.250, -0.55
236.252, -0.27
236.255, 0.41
236.349, 0.29
236.355, -0.94
236.356, -1.09
236.450, -0.81
236.452, -0.32
236.455, 0.38
236.548, 0.38
236.552, -0.27
236.552, -0.31
236.651, -0.50
236.652, -0.29
236.655, 0.31
236.749, 0.33
236.753, -0.53
236.753, -0.59
236.850, -0.57
236.852, -0.29
236.855, 0.35
236.948, 0.41
236.952, -0.45
236.956, -1.12
237.055, 0.45
237.149, 0.24
237.152, -0.39
237.153, -0.79
237.255, 0.37
237.349, 0.26
237.353, -0.70
237.356, -1.11
237.451, -0.58
237.451, -0.50
237.455, 0.47
237.547, 0.55
237.551, -0.17
237.552, -0.52
237.553, -0.86
237.556, -1.12
237.650, -0.49
237.652, -0.26
237.656, 0.50
237.747, 0.57
237.753, -0.46
237.753, -0.60
237.755, -0.94
237.756, -1.11
237.856, 0.56
237.948, 0.52
238.050, -0.62
238.052, -0.32
238.056, 0.55
238.148, 0.53
238.256, 0.50
238.348, 0.52
238.353, -0.44
238.353, -0.74
238.456, 0.58
238.548, 0.51
238.551, -0.21
238.554, -0.93
238.649, -0.79
238.651, -0.50
238.656, 0.60
238.748, 0.50
238.751, -0.22
238.752, -0.46
238.755, -1.03
238.756, -1.16
238.850, -0.58
238.852, -0.27
238.856, 0.50
238.947, 0.58
238.952, -0.38
238.955, -0.98
239.050, -0.52
239.052, -0.22
239.056, 0.60
239.147, 0.56
239.152, -0.30
239.154, -0.74
239.256, 0.64
239.347, 0.59
239.351, -0.20
239.355, -0.94
239.456, 0.57
239.547, 0.56
239.551, -0.19
239.552, -0.53
239.651, -0.48
239.651, -0.45
239.656, 0.56
239.748, 0.54
239.752, -0.41
239.756, -1.12
239.850, -0.70
239.850, -0.62
239.856, 0.56
239.948, 0.44
239.952, -0.39
239.954, -0.92
240.049, -0.72
240.051, -0.41
240.056, 0.50
240.148, 0.47
240.152, -0.43
240.153, -0.67
240.250, -0.52
240.252, -0.33
240.256, 0.49
240.348, 0.46
240.352, -0.23
240.352, -0.35
240.456, 0.51
240.548, 0.45
240.655, 0.44
240.748, 0.39
240.752, -0.47
240.753, -0.66
240.855, 0.41
240.948, 0.42
240.952, -0.44
240.955, -1.05
241.055, 0.45
241.148, 0.43
241.151, -0.20
241.153, -0.47
241.154, -0.69
241.155, -0.97
241.250, -0.59
241.252, -0.28
241.255, 0.44
241.348, 0.45
241.352, -0.38
241.354, -0.71
241.355, -0.99
241.355, -1.07
241.455, 0.37
241.548, 0.40
241.553, -0.84
241.555, -1.02
241.650, -0.64
241.652, -0.32
241.655, 0.34
241.749, 0.35
241.752, -0.30
241.752, -0.37
241.850, -0.71
241.851, -0.46
241.855, 0.44
241.948, 0.46
241.954, -1.02
241.956, -1.12
242.055, 0.37
242.148, 0.41
242.153, -0.75
242.155, -1.06
242.250, -0.56
242.252, -0.31
242.255, 0.37
242.349, 0.33
242.352, -0.33
242.355, -1.05
242.455, 0.42
242.549, 0.35
242.552, -0.35
242.556, -1.11
242.655, 0.32
242.748, 0.39
242.755, -0.90
242.756, -1.11
242.849, -0.77
242.850, -0.66
242.855, 0.34
242.949, 0.36
242.952, -0.27
242.952, -0.32
242.953, -0.66
242.955, -1.06
243.055, 0.39
243.148, 0.41
243.152, -0.41
243.154, -0.78
243.155, -0.94
243.156, -1.11
243.251, -0.47
243.251, -0.34
243.255, 0.35
243.348, 0.39
243.352, -0.42
243.356, -1.12
243.449, -0.77
243.450, -0.63
243.455, 0.29
243.549, 0.33
243.552, -0.27
243.552, -0.31
243.650, -0.49
243.652, -0.30
243.655, 0.35
243.748, 0.47
243.752, -0.41
243.756, -1.13
243.855, 0.35
243.949, 0.32
244.051, -0.48
244.051, -0.32
244.055, 0.40
244.149, 0.30
244.152, -0.29
244.152, -0.31
244.154, -0.94
244.156, -1.09
244.255, 0.34
244.349, 0.33
244.354, -0.80
244.354, -0.98
244.448, -1.03
244.448, -0.99
244.449, -0.77
244.451, -0.56
244.455, 0.39
244.549, 0.27
244.553, -0.58
244.553, -0.63
244.655, 0.33
244.748, 0.39
244.753, -0.77
244.755, -0.98
244.850, -0.74
244.850, -0.60
244.855, 0.29
244.949, 0.35
244.954, -1.00
244.956, -1.11
245.055, 0.39
245.149, 0.28
245.152, -0.42
245.153, -0.79
245.255, 0.42
245.348, 0.44
245.352, -0.24
245.353, -0.63
245.355, -1.05
245.356, -1.12
245.455, 0.41
245.549, 0.33
245.552, -0.31
245.552, -0.37
245.649, -0.70
245.651, -0.59
245.655, 0.42
245.749, 0.31
245.754, -0.82
245.754, -0.97
245.855, 0.34
245.949, 0.30
246.049, -0.74
246.051, -0.43
246.055, 0.40
246.149, 0.24
246.153, -0.52
246.153, -0.75
246.251, -0.63
246.252, -0.31
246.255, 0.36
246.349, 0.33
246.354, -0.82
246.354, -1.06
246.451, -0.56
246.452, -0.31
246.455, 0.40
246.549, 0.21
246.552, -0.38
246.554, -0.87
246.648, -0.99
246.648, -0.98
246.655, 0.35
246.749, 0.31
246.754, -0.77
246.754, -0.92
246.849, -0.78
246.850, -0.62
246.855, 0.36
246.949, 0.35
247.055, 0.32
247.148, 0.45
247.152, -0.22
247.152, -0.35
247.249, -0.72
247.251, -0.54
247.255, 0.35
247.348, 0.36
247.449, -0.80
247.450, -0.55
247.455, 0.37
247.549, 0.27
247.552, -0.33
247.553, -0.74
247.655, 0.31
247.749, 0.35
247.753, -0.74
247.755, -1.03
247.855, 0.42
247.949, 0.31
248.051, -0.44
248.052, -0.27
248.055, 0.36
248.149, 0.31
248.153, -0.74
248.155, -0.93
248.255, 0.37
248.349, 0.34
248.352, -0.41
248.354, -0.74
248.455, 0.42
248.549, 0.24
248.554, -0.99
248.556, -1.10
248.650, -0.64
248.652, -0.29
248.655, 0.34
248.748, 0.40
248.752, -0.39
248.753, -0.64
248.855, 0.40
248.949, 0.33
248.952, -0.39
248.955, -0.96
249.049, -0.74
249.051, -0.55
249.055, 0.41
249.149, 0.32
249.155, -0.89
249.156, -1.11
249.255, 0.41
249.349, 0.33
249.354, -0.98
249.354, -1.06
249.455, 0.36
249.548, 0.37
249.553, -0.75
249.556, -1.15
249.649, -0.73
249.652, -0.27
249.655, 0.36
249.749, 0.33
249.752, -0.41
249.756, -1.10
249.849, -0.83
249.851, -0.60
249.855, 0.36
249.948, 0.36
249.952, -0.37
249.954, -0.73
250.055, 0.44
250.148, 0.40
250.251, -0.56
250.252, -0.31
250.255, 0.35
250.348, 0.39
250.354, -0.81
250.355, -1.02
250.449, -0.76
250.452, -0.28
250.455, 0.34
250.548, 0.39
250.553, -0.62
250.555, -0.94
250.655, 0.29
250.749, 0.35
250.753, -0.69
250.755, -0.97
250.849, -0.81
250.851, -0.51
250.855, 0.36
250.949, 0.35
251.049, -0.76
251.050, -0.67
251.055, 0.39
251.149, 0.35
251.155, -0.93
251.156, -1.07
251.255, 0.35
251.348, 0.36
251.352, -0.43
251.353, -0.64
251.355, -0.88
251.356, -1.11
251.455, 0.42
251.548, 0.39
251.552, -0.39
251.555, -1.05
251.655, 0.33
251.749, 0.33
251.752, -0.25
251.752, -0.33
251.855, 0.34
251.949, 0.34
251.952, -0.36
251.955, -1.05
252.050, -0.61
252.052, -0.30
252.055, 0.30
252.148, 0.36
252.154, -0.84
252.156, -1.11
252.250, -0.57
252.252, -0.24
252.255, 0.40
252.349, 0.34
252.352, -0.44
252.353, -0.82
252.450, -0.54
252.452, -0.36
252.455, 0.40
252.549, 0.34
252.552, -0.40
252.553, -0.69
252.555, -0.89
252.556, -1.12
252.655, 0.32
252.748, 0.42
252.752, -0.23
252.752, -0.36
252.855, 0.45
252.948, 0.45
252.952, -0.23
252.952, -0.38
252.953, -0.57
252.955, -0.98
253.050, -0.74
253.050, -0.64
253.055, 0.37
253.148, 0.39
253.153, -0.62
253.156, -1.11
253.255, 0.39
253.348, 0.42
253.351, -0.20
253.352, -0.34
253.355, -1.00
253.356, -1.08
253.450, -0.52
253.452, -0.26
253.455, 0.36
253.549, 0.35
253.554, -0.76
253.555, -0.99
253.649, -0.80
253.652, -0.31
253.655, 0.42
253.748, 0.38
253.754, -0.89
253.756, -1.06
253.855, 0.44
253.948, 0.38
253.952, -0.40
253.955, -0.86
254.055, 0.35
254.149, 0.33
254.152, -0.29
254.152, -0.31
254.154, -0.74
254.155, -1.02
254.249, -0.72
254.251, -0.49
254.255, 0.39
254.348, 0.47
254.352, -0.37
254.353, -0.77
254.355, -0.97
254.356, -1.11
254.451, -0.53
254.451, -0.43
254.455, 0.33
254.548, 0.36
254.552, -0.44
254.553, -0.67
254.555, -0.86
254.556, -1.11
254.651, -0.62
254.652, -0.27
254.655, 0.40
254.748, 0.38
254.752, -0.28
254.753, -0.77
254.755, -0.95
254.756, -1.09
254.854, 0.17
254.855, 0.30
254.855, 0.42
254.948, 0.44
254.955, -0.94
254.955, -0.97
255.050, -0.50
255.052, -0.28
255.055, 0.37
255.148, 0.37
255.153, -0.61
255.155, -0.96
255.255, 0.43
255.348, 0.47
255.352, -0.28
255.352, -0.29
255.455, 0.39
255.548, 0.36
255.551, -0.21
255.555, -0.97
255.651, -0.50
255.651, -0.38
255.655, 0.40
255.748, 0.40
255.755, -1.02
255.755, -1.06
255.850, -0.55
255.852, -0.27
255.855, 0.36
255.949, 0.35
255.952, -0.44
255.953, -0.70
256.051, -0.66
256.052, -0.26
256.055, 0.39
256.149, 0.35
256.155, -0.94
256.155, -1.04
256.249, -0.79
256.252, -0.23
256.255, 0.44
256.348, 0.43
256.352, -0.24
256.352, -0.32
256.451, -0.46
256.452, -0.28
256.455, 0.42
256.548, 0.38
256.555, -0.98
256.555, -1.01
256.655, 0.39
256.748, 0.38
256.752, -0.36
256.752, -0.38
256.754, -0.85
256.756, -1.14
256.855, 0.37
256.948, 0.36
257.050, -0.58
257.052, -0.35
257.054, 0.17
257.054, 0.23
257.055, 0.44
257.148, 0.39
257.255, 0.36
257.348, 0.38
257.355, -0.89
257.356, -1.10
257.450, -0.56
257.452, -0.26
257.455, 0.40
257.548, 0.47
257.554, -0.87
257.556, -1.14
257.655, 0.33
257.748, 0.36
257.753, -0.67
257.754, -1.01
257.855, 0.38
257.948, 0.42
257.952, -0.42
257.953, -0.61
258.055, 0.37
258.148, 0.39
258.255, 0.40
258.348, 0.43
258.455, 0.38
258.548, 0.38
258.655, 0.39
258.748, 0.39
258.755, -0.94
258.756, -1.14
258.850, -0.66
258.852, -0.26
258.855, 0.33
258.948, 0.36
258.953, -0.73
258.954, -0.99
259.055, 0.40
259.148, 0.38
259.152, -0.24
259.155, -0.98
259.250, -0.59
259.252, -0.25
259.255, 0.40
259.348, 0.45
259.355, -1.00
259.356, -1.17
259.450, -0.58
259.452, -0.26
259.455, 0.32
259.548, 0.38
259.553, -0.60
259.555, -1.12
259.652, -0.25
259.652, -0.22
259.655, 0.43
259.748, 0.45
259.752, -0.41
259.753, -0.70
259.755, -1.02
259.756, -1.12
259.855, 0.41
259.948, 0.38
259.951, -0.21
259.953, -0.58
260.055, 0.36
260.148, 0.40
260.152, -0.43
260.154, -0.76
260.155, -0.93
260.156, -1.11
260.249, -0.75
260.250, -0.52
260.255, 0.36
260.348, 0.37
260.352, -0.38
260.354, -0.69
260.449, -0.72
260.450, -0.55
260.455, 0.41
260.548, 0.43
260.555, -0.92
260.556, -1.22
260.649, -0.78
260.651, -0.56
260.655, 0.37
260.748, 0.37
260.849, -0.69
260.851, -0.56
260.855, 0.36
260.948, 0.37
260.952, -0.29
260.952, -0.40
260.955, -0.89
260.956, -1.17
261.055, 0.41
261.148, 0.38
261.152, -0.42
261.156, -1.16
261.249, -0.79
261.251, -0.43
261.255, 0.34
261.348, 0.37
261.352, -0.42
261.354, -0.81
261.354, -0.91
261.356, -1.17
261.450, -0.50
261.452, -0.27
261.455, 0.42
