time (sec), voltage (V)
0.050, -0.52
0.052, -0.32
0.151, -0.22
0.152, -0.53
0.352, -0.22
0.355, -1.09
0.450, -0.53
0.451, -0.37
0.551, -0.21
0.552, -0.57
0.555, -0.90
0.556, -1.13
0.751, -0.19
0.752, -0.39
0.753, -0.62
0.756, -1.12
0.849, -0.80
0.851, -0.59
0.952, -0.37
0.953, -0.69
1.049, -0.72
1.050, -0.65
1.153, -0.58
1.153, -0.71
1.155, -0.94
1.156, -1.10
1.250, -0.59
1.252, -0.34
1.351, -0.21
1.355, -1.08
1.451, -0.57
1.452, -0.28
1.551, -0.19
1.553, -0.64
1.554, -1.01
1.556, -1.18
1.755, -0.97
1.756, -1.14
1.955, -0.97
1.955, -1.02
2.049, -0.71
2.050, -0.63
2.153, -0.72
2.156, -1.17
2.251, -0.55
2.252, -0.33
2.450, -0.52
2.452, -0.19
2.552, -0.49
2.554, -0.93
2.651, -0.52
2.651, -0.50
2.753, -0.51
2.753, -0.64
2.851, -0.53
2.852, -0.35
2.951, -0.18
2.952, -0.44
3.049, -0.72
3.051, -0.45
3.051, -0.38
3.052, -0.23
3.154, -0.80
3.154, -1.09
3.250, -0.61
3.252, -0.29
3.355, -0.98
3.356, -1.17
3.450, -0.58
3.453, -0.09
3.458, 0.96
3.545, 0.98
3.555, -0.93
3.555, -1.04
3.650, -0.52
3.652, -0.20
3.657, 0.86
3.747, 0.73
3.754, -0.90
3.756, -1.12
3.851, -0.56
3.852, -0.33
3.856, 0.62
3.947, 0.67
3.953, -0.75
3.955, -0.99
4.058, 0.87
4.146, 0.78
4.152, -0.48
4.153, -0.86
4.155, -0.98
4.155, -1.05
4.258, 0.91
4.346, 0.88
4.353, -0.59
4.353, -0.79
4.452, -0.37
4.453, -0.16
4.457, 0.83
4.546, 0.87
4.552, -0.51
4.553, -0.73
4.651, -0.44
4.651, -0.38
4.658, 0.88
4.746, 0.79
4.751, -0.19
4.754, -0.92
4.850, -0.50
4.852, -0.33
4.858, 0.97
4.946, 0.82
4.953, -0.73
4.955, -1.08
5.050, -0.53
5.053, -0.11
5.058, 0.91
5.146, 0.89
5.153, -0.55
5.153, -0.69
5.155, -0.95
5.156, -1.13
5.251, -0.44
5.251, -0.37
5.258, 0.90
5.346, 0.93
5.451, -0.43
5.451, -0.40
5.458, 0.87
5.546, 0.94
5.553, -0.48
5.556, -1.09
5.652, -0.35
5.653, -0.08
5.658, 0.95
5.746, 0.91
5.752, -0.33
5.752, -0.45
5.852, -0.34
5.853, -0.09
5.858, 0.91
5.946, 0.89
5.953, -0.45
5.955, -1.09
6.058, 0.87
6.145, 0.95
6.152, -0.26
6.152, -0.41
6.154, -0.79
6.156, -1.11
6.250, -0.52
6.251, -0.32
6.258, 0.91
6.346, 0.94
6.351, -0.22
6.352, -0.45
6.354, -0.72
6.356, -1.10
6.450, -0.57
6.451, -0.31
6.458, 0.90
6.546, 0.95
6.652, -0.31
6.653, -0.09
6.658, 0.97
6.746, 0.88
6.752, -0.28
6.753, -0.75
6.851, -0.41
6.851, -0.40
6.858, 0.95
6.946, 0.89
6.953, -0.52
6.953, -0.65
6.954, -0.81
6.956, -1.10
7.052, -0.40
7.053, -0.10
7.058, 0.88
7.146, 0.90
7.258, 0.92
7.346, 0.88
7.353, -0.62
7.356, -1.09
7.450, -0.54
7.452, -0.30
7.458, 0.96
7.546, 0.90
7.554, -0.84
7.556, -1.10
7.652, -0.38
7.653, -0.09
7.658, 0.93
7.746, 0.81
7.850, -0.52
7.852, -0.32
7.858, 0.91
7.945, 0.97
7.952, -0.41
7.954, -1.01
8.058, 0.89
8.146, 0.82
8.154, -0.84
8.155, -1.01
8.250, -0.52
8.252, -0.28
8.257, 0.84
8.346, 0.83
8.352, -0.29
8.352, -0.46
8.450, -0.56
8.451, -0.35
8.457, 0.84
8.546, 0.85
8.552, -0.34
8.552, -0.39
8.652, -0.39
8.653, -0.10
8.657, 0.86
8.746, 0.89
8.857, 0.85
8.946, 0.83
8.952, -0.41
8.952, -0.45
9.051, -0.33
9.053, -0.09
9.057, 0.82
9.146, 0.84
9.151, -0.19
9.156, -1.07
9.257, 0.77
9.346, 0.86
9.352, -0.27
9.352, -0.40
9.451, -0.51
9.453, -0.07
9.457, 0.81
9.546, 0.78
9.554, -0.88
9.555, -1.13
9.652, -0.40
9.653, -0.09
9.657, 0.83
9.746, 0.89
9.857, 0.86
9.946, 0.88
9.951, -0.22
9.954, -1.02
10.052, -0.21
10.052, -0.13
10.058, 0.88
10.146, 0.91
10.252, -0.33
10.253, -0.10
10.257, 0.85
10.346, 0.85
10.353, -0.76
10.355, -1.03
10.457, 0.82
10.546, 0.80
10.551, -0.16
10.552, -0.41
10.554, -0.73
10.555, -1.02
10.651, -0.54
10.652, -0.28
10.658, 0.87
10.746, 0.84
10.755, -0.99
10.756, -1.13
10.851, -0.45
10.853, -0.10
10.857, 0.83
10.946, 0.84
10.951, -0.17
10.953, -0.62
10.955, -1.10
10.955, -1.11
11.052, -0.28
11.052, -0.14
11.057, 0.84
11.146, 0.86
11.153, -0.49
11.153, -0.53
11.258, 0.88
11.346, 0.81
11.354, -0.90
11.356, -1.12
11.451, -0.59
11.451, -0.46
11.457, 0.86
11.546, 0.89
11.551, -0.19
11.552, -0.54
11.554, -0.85
11.555, -0.95
11.658, 0.88
11.746, 0.89
11.752, -0.58
11.756, -1.15
11.852, -0.35
11.852, -0.16
11.857, 0.84
11.946, 0.85
11.951, -0.21
11.952, -0.57
11.955, -1.01
11.956, -1.14
12.051, -0.49
12.051, -0.43
12.057, 0.84
12.146, 0.84
12.151, -0.24
12.156, -1.11
12.258, 0.88
12.346, 0.84
12.457, 0.82
12.546, 0.80
12.554, -0.69
12.556, -1.14
12.657, 0.84
12.746, 0.84
12.754, -0.90
12.756, -1.14
12.850, -0.54
12.852, -0.22
12.857, 0.79
12.946, 0.82
12.951, -0.19
12.954, -0.83
13.050, -0.56
13.053, -0.08
13.058, 0.94
13.146, 0.81
13.152, -0.48
13.154, -0.77
13.251, -0.56
13.252, -0.15
13.258, 0.90
13.346, 0.89
13.353, -0.74
13.354, -0.82
13.452, -0.28
13.453, -0.10
13.457, 0.79
13.546, 0.86
13.551, -0.22
13.554, -0.82
13.650, -0.51
13.651, -0.33
13.657, 0.76
13.746, 0.85
13.751, -0.20
13.754, -0.83
13.857, 0.75
13.946, 0.85
14.050, -0.53
14.052, -0.14
14.057, 0.82
14.146, 0.80
14.153, -0.86
14.155, -0.95
14.250, -0.60
14.252, -0.33
14.257, 0.86
14.346, 0.85
14.450, -0.58
14.452, -0.26
14.457, 0.85
14.546, 0.82
14.555, -1.04
14.556, -1.11
14.652, -0.31
14.652, -0.15
14.657, 0.83
14.746, 0.84
14.752, -0.49
14.754, -0.79
14.850, -0.51
14.852, -0.29
14.857, 0.86
14.946, 0.84
14.951, -0.20
14.954, -0.86
15.052, -0.22
15.052, -0.19
15.057, 0.80
15.146, 0.80
15.154, -0.75
15.155, -1.07
15.257, 0.80
15.346, 0.82
15.352, -0.51
15.354, -0.74
15.451, -0.51
15.453, -0.09
15.457, 0.76
15.546, 0.88
15.551, -0.19
15.552, -0.44
15.554, -0.76
15.555, -0.89
15.657, 0.81
15.746, 0.81
15.858, 0.89
15.946, 0.82
16.052, -0.33
16.053, -0.10
16.057, 0.82
16.146, 0.88
16.152, -0.29
16.153, -0.84
16.252, -0.33
16.253, -0.13
16.257, 0.76
16.346, 0.86
16.352, -0.40
16.354, -0.84
16.355, -0.95
16.355, -1.02
16.450, -0.51
16.453, -0.16
16.457, 0.86
16.546, 0.81
16.552, -0.55
16.553, -0.80
16.555, -0.92
16.556, -1.08
16.658, 0.89
16.746, 0.77
16.751, -0.19
16.752, -0.44
16.754, -0.66
16.756, -1.10
16.858, 0.87
16.946, 0.82
17.052, -0.34
17.052, -0.22
17.058, 0.88
17.146, 0.84
17.153, -0.59
17.153, -0.76
17.257, 0.79
17.346, 0.84
17.353, -0.66
17.355, -0.99
17.457, 0.86
17.546, 0.87
17.652, -0.42
17.653, -0.14
17.657, 0.80
17.746, 0.86
17.754, -0.70
17.755, -0.93
17.850, -0.54
17.852, -0.33
17.857, 0.85
17.946, 0.83
17.952, -0.57
17.954, -0.78
18.050, -0.51
18.051, -0.33
18.057, 0.84
18.146, 0.80
18.153, -0.58
18.154, -0.78
18.251, -0.45
18.253, -0.09
18.257, 0.86
18.347, 0.73
18.351, -0.18
18.352, -0.46
18.457, 0.82
18.546, 0.85
18.551, -0.22
18.554, -0.92
18.650, -0.64
18.653, -0.12
18.657, 0.85
18.746, 0.87
18.852, -0.35
18.852, -0.26
18.857, 0.84
18.946, 0.88
18.952, -0.50
18.955, -0.99
19.058, 0.87
19.146, 0.78
19.152, -0.57
19.154, -0.85
19.257, 0.82
19.346, 0.83
19.355, -0.98
19.355, -1.07
19.457, 0.84
19.546, 0.80
19.551, -0.22
19.554, -0.84
19.650, -0.55
19.652, -0.30
19.657, 0.82
19.746, 0.82
19.751, -0.21
19.753, -0.48
19.753, -0.62
19.755, -0.90
19.858, 0.87
19.947, 0.73
19.952, -0.61
19.954, -0.87
20.051, -0.51
20.051, -0.43
20.057, 0.79
20.146, 0.87
20.151, -0.19
20.152, -0.42
20.258, 0.88
20.346, 0.88
20.354, -0.82
20.355, -0.91
20.450, -0.51
20.451, -0.38
20.457, 0.86
20.547, 0.73
20.553, -0.74
20.555, -0.90
20.658, 0.90
20.746, 0.84
20.751, -0.29
20.752, -0.54
20.857, 0.81
20.946, 0.77
20.953, -0.80
20.953, -0.86
21.050, -0.59
21.052, -0.25
21.057, 0.82
21.146, 0.86
21.151, -0.24
21.153, -0.50
21.250, -0.51
21.251, -0.35
21.258, 0.89
21.346, 0.80
21.354, -0.86
21.355, -1.02
21.458, 0.86
21.547, 0.71
21.551, -0.19
21.552, -0.55
21.657, 0.81
21.747, 0.66
21.850, -0.54
21.852, -0.31
21.857, 0.81
21.946, 0.84
21.951, -0.23
21.953, -0.81
22.050, -0.54
22.052, -0.28
22.058, 0.86
22.146, 0.79
22.151, -0.21
22.152, -0.46
22.250, -0.53
22.252, -0.23
22.257, 0.82
22.346, 0.79
22.351, -0.20
22.352, -0.45
22.450, -0.53
22.452, -0.26
22.458, 0.88
22.546, 0.88
22.554, -1.01
22.554, -1.02
22.650, -0.60
22.652, -0.33
22.658, 0.89
22.746, 0.89
22.752, -0.60
22.753, -0.83
22.858, 0.94
22.946, 0.77
22.951, -0.18
22.953, -0.79
23.057, 0.86
23.147, 0.74
23.151, -0.18
23.153, -0.91
23.257, 0.86
23.346, 0.80
23.353, -0.72
23.355, -1.01
23.450, -0.53
23.452, -0.16
23.457, 0.85
23.546, 0.81
23.555, -1.00
23.555, -1.04
23.657, 0.77
23.747, 0.75
23.751, -0.21
23.753, -0.57
23.753, -0.81
23.755, -0.96
23.850, -0.52
23.852, -0.26
23.857, 0.83
23.946, 0.84
23.952, -0.60
23.955, -0.98
24.050, -0.55
24.053, -0.09
24.057, 0.82
24.146, 0.77
24.151, -0.16
24.153, -0.73
24.257, 0.81
24.346, 0.91
24.452, -0.34
24.453, -0.12
24.458, 0.90
24.546, 0.90
24.552, -0.45
24.554, -0.89
24.651, -0.53
24.653, -0.10
24.657, 0.80
24.747, 0.75
24.751, -0.20
24.752, -0.51
24.755, -0.91
24.755, -1.08
24.857, 0.86
24.946, 0.83
24.955, -1.03
24.956, -1.12
25.058, 0.90
25.147, 0.73
25.154, -0.74
25.154, -0.80
25.258, 0.88
25.346, 0.83
25.352, -0.44
25.354, -0.80
25.457, 0.80
25.546, 0.84
25.554, -1.01
25.556, -1.10
25.657, 0.85
25.746, 0.86
25.751, -0.19
25.752, -0.50
25.755, -0.90
25.755, -1.06
25.850, -0.58
25.853, -0.10
25.858, 0.87
25.946, 0.78
25.955, -1.03
25.956, -1.13
26.057, 0.82
26.146, 0.87
26.252, -0.39
26.253, -0.12
26.257, 0.81
26.346, 0.80
26.451, -0.46
26.453, -0.12
26.457, 0.85
26.546, 0.82
26.551, -0.19
26.552, -0.46
26.555, -0.94
26.556, -1.10
26.652, -0.40
26.653, -0.15
26.657, 0.86
26.746, 0.86
26.751, -0.20
26.753, -0.55
26.850, -0.53
26.852, -0.29
26.857, 0.83
26.946, 0.76
26.954, -0.70
26.954, -0.82
27.057, 0.85
27.146, 0.85
27.152, -0.44
27.156, -1.08
27.250, -0.51
27.252, -0.28
27.258, 0.89
27.346, 0.87
27.353, -0.54
27.356, -1.08
27.457, 0.85
27.546, 0.82
27.657, 0.82
27.746, 0.79
27.852, -0.37
27.853, -0.15
27.858, 0.87
27.946, 0.86
27.955, -1.02
27.956, -1.11
28.057, 0.83
28.146, 0.83
28.250, -0.52
28.252, -0.29
28.257, 0.82
28.346, 0.80
28.355, -1.05
28.356, -1.15
28.452, -0.32
28.452, -0.18
28.457, 0.82
28.546, 0.80
28.553, -0.42
28.554, -0.89
28.650, -0.57
28.652, -0.26
28.657, 0.86
28.746, 0.80
28.752, -0.28
28.754, -0.76
28.755, -1.00
28.755, -1.07
28.850, -0.53
28.852, -0.27
28.857, 0.85
28.946, 0.83
28.954, -0.66
28.955, -0.97
29.057, 0.86
29.146, 0.86
29.152, -0.51
29.154, -0.80
29.155, -1.02
29.155, -1.05
29.258, 0.90
29.346, 0.86
29.352, -0.51
29.353, -0.85
29.458, 0.89
29.546, 0.83
29.552, -0.35
29.553, -0.66
29.555, -1.01
29.556, -1.10
29.657, 0.86
29.746, 0.81
29.754, -0.72
29.754, -0.88
29.850, -0.54
29.851, -0.43
29.857, 0.79
29.946, 0.82
29.952, -0.49
29.954, -0.87
29.955, -1.11
29.955, -1.13
30.057, 0.82
30.146, 0.85
30.154, -0.90
30.156, -1.10
30.250, -0.60
30.252, -0.33
30.257, 0.84
30.346, 0.86
30.351, -0.20
30.354, -0.96
30.450, -0.56
30.452, -0.38
30.457, 0.79
30.546, 0.86
30.553, -0.78
30.555, -1.06
30.658, 0.88
30.746, 0.81
30.751, -0.19
30.753, -0.87
30.857, 0.79
30.946, 0.80
31.057, 0.81
31.146, 0.85
31.153, -0.56
31.154, -0.77
31.250, -0.53
31.251, -0.33
31.257, 0.82
31.346, 0.84
31.353, -0.51
31.353, -0.70
31.452, -0.26
31.452, -0.12
31.457, 0.80
31.546, 0.78
31.552, -0.41
31.555, -0.95
31.657, 0.84
31.746, 0.79
31.752, -0.46
31.755, -0.91
31.852, -0.38
31.853, -0.13
31.857, 0.81
31.946, 0.81
31.955, -0.89
31.956, -1.09
32.058, 0.87
32.146, 0.81
32.151, -0.18
32.152, -0.44
32.153, -0.79
32.155, -0.92
32.251, -0.40
32.253, -0.11
32.257, 0.85
32.346, 0.86
32.354, -0.77
32.354, -0.89
32.450, -0.61
32.452, -0.34
32.458, 0.86
32.546, 0.86
32.551, -0.21
32.553, -0.51
32.652, -0.31
32.653, -0.09
32.657, 0.86
32.746, 0.82
32.754, -0.77
32.756, -1.13
32.850, -0.57
32.852, -0.34
32.857, 0.77
32.946, 0.80
32.955, -0.94
32.955, -1.06
33.052, -0.35
33.053, -0.08
33.058, 0.87
33.146, 0.80
33.152, -0.31
33.153, -0.83
33.258, 0.87
33.346, 0.87
33.352, -0.34
33.352, -0.41
33.450, -0.51
33.452, -0.30
33.458, 0.87
33.546, 0.82
33.650, -0.53
33.651, -0.34
33.658, 0.91
33.746, 0.83
33.850, -0.59
33.852, -0.21
33.857, 0.80
33.946, 0.84
33.952, -0.55
33.954, -0.83
34.057, 0.85
34.146, 0.85
34.250, -0.59
34.252, -0.25
34.258, 0.96
34.346, 0.87
34.354, -0.77
34.356, -1.14
34.450, -0.52
34.452, -0.23
34.457, 0.83
34.546, 0.83
34.650, -0.53
34.653, -0.08
34.657, 0.79
34.746, 0.84
34.755, -0.93
34.756, -1.12
34.857, 0.80
34.946, 0.78
35.051, -0.50
35.051, -0.41
35.057, 0.78
35.146, 0.82
35.155, -1.00
35.156, -1.14
35.252, -0.28
35.252, -0.15
35.258, 0.92
35.346, 0.78
35.355, -1.00
35.355, -1.02
35.450, -0.59
35.452, -0.34
35.457, 0.83
35.546, 0.80
35.650, -0.56
35.653, -0.12
35.657, 0.83
35.746, 0.88
35.752, -0.44
35.755, -0.96
35.850, -0.54
35.852, -0.31
35.857, 0.76
35.946, 0.80
36.050, -0.61
36.052, -0.28
36.057, 0.81
36.146, 0.85
36.151, -0.19
36.153, -0.83
36.257, 0.83
36.346, 0.83
36.354, -0.74
36.355, -0.98
36.458, 0.87
36.546, 0.84
36.554, -0.70
36.554, -0.88
36.657, 0.79
36.746, 0.83
36.755, -1.01
36.755, -1.10
36.852, -0.32
36.852, -0.15
36.857, 0.82
36.946, 0.80
36.951, -0.20
36.952, -0.58
37.057, 0.82
37.146, 0.78
37.152, -0.57
37.154, -0.89
37.257, 0.81
37.346, 0.75
37.457, 0.83
37.546, 0.77
37.554, -0.90
37.556, -1.12
37.652, -0.29
37.653, -0.10
37.658, 0.92
37.746, 0.79
37.751, -0.15
37.752, -0.52
37.754, -0.79
37.755, -1.04
37.850, -0.55
37.852, -0.29
37.857, 0.74
37.946, 0.81
37.954, -0.72
37.956, -1.07
38.057, 0.79
38.146, 0.77
38.153, -0.73
38.154, -0.89
38.252, -0.29
38.253, -0.12
38.257, 0.81
38.346, 0.81
38.351, -0.20
38.354, -0.81
38.450, -0.55
38.452, -0.12
38.457, 0.85
38.546, 0.85
38.652, -0.36
38.652, -0.22
38.657, 0.81
38.746, 0.78
38.752, -0.26
38.752, -0.36
38.753, -0.64
38.755, -0.91
38.850, -0.59
38.852, -0.27
38.857, 0.74
38.946, 0.82
38.953, -0.75
38.954, -0.95
39.057, 0.81
39.146, 0.78
39.152, -0.29
39.152, -0.43
39.154, -0.71
39.155, -0.92
39.257, 0.80
39.346, 0.79
39.354, -0.86
39.355, -1.04
39.450, -0.53
39.452, -0.31
39.458, 0.89
39.546, 0.78
39.554, -0.73
39.555, -0.87
39.652, -0.30
39.653, -0.11
39.657, 0.84
39.746, 0.81
39.851, -0.57
39.851, -0.52
39.857, 0.81
39.946, 0.79
39.951, -0.18
39.954, -0.88
40.057, 0.72
40.146, 0.80
40.151, -0.19
40.154, -0.95
40.250, -0.53
40.252, -0.28
40.257, 0.82
40.346, 0.80
40.351, -0.19
40.354, -0.83
40.457, 0.83
40.546, 0.80
40.650, -0.49
40.652, -0.16
40.658, 0.87
40.746, 0.78
40.752, -0.54
40.756, -1.09
40.857, 0.78
40.946, 0.80
41.052, -0.36
41.053, -0.09
41.057, 0.86
41.146, 0.85
41.151, -0.25
41.152, -0.44
41.154, -0.83
41.154, -0.85
41.258, 0.88
41.346, 0.76
41.451, -0.50
41.451, -0.34
41.457, 0.76
41.546, 0.81
41.551, -0.16
41.555, -1.03
41.657, 0.73
41.746, 0.84
41.751, -0.20
41.753, -0.88
41.755, -1.02
41.755, -1.08
41.850, -0.55
41.852, -0.31
41.857, 0.80
41.946, 0.75
41.953, -0.73
41.953, -0.90
42.050, -0.47
42.053, -0.11
42.057, 0.71
42.146, 0.77
42.154, -0.75
42.154, -0.88
42.252, -0.34
42.253, -0.09
42.257, 0.69
42.346, 0.81
42.352, -0.49
42.355, -0.97
42.452, -0.35
42.452, -0.18
42.458, 0.87
42.546, 0.83
42.551, -0.25
42.555, -0.94
42.650, -0.51
42.652, -0.26
42.657, 0.87
42.746, 0.75
42.751, -0.17
42.754, -0.84
42.754, -0.99
42.756, -1.14
42.850, -0.54
42.852, -0.19
42.857, 0.72
42.947, 0.73
43.057, 0.72
43.146, 0.80
43.152, -0.50
43.154, -0.80
43.155, -0.93
43.155, -1.04
43.251, -0.49
43.251, -0.35
43.257, 0.79
43.346, 0.82
43.450, -0.52
43.451, -0.36
43.457, 0.73
43.546, 0.78
43.553, -0.53
43.556, -1.10
43.657, 0.78
43.746, 0.76
43.751, -0.19
43.754, -0.84
43.850, -0.54
43.853, -0.12
43.857, 0.68
43.946, 0.79
43.953, -0.77
43.953, -0.80
44.052, -0.34
44.052, -0.17
44.057, 0.80
44.146, 0.78
44.154, -0.71
44.155, -0.94
44.257, 0.81
44.346, 0.76
44.351, -0.24
44.352, -0.43
44.457, 0.84
44.546, 0.77
44.553, -0.80
44.555, -0.98
44.657, 0.75
44.746, 0.78
44.751, -0.20
44.754, -0.86
44.852, -0.30
44.853, -0.11
44.857, 0.81
44.946, 0.77
44.951, -0.21
44.952, -0.44
45.057, 0.80
45.146, 0.79
45.151, -0.20
45.152, -0.52
45.257, 0.84
45.346, 0.82
45.450, -0.52
45.453, -0.16
45.457, 0.80
45.546, 0.85
45.652, -0.25
45.652, -0.14
45.657, 0.85
45.746, 0.77
45.753, -0.72
45.755, -0.93
45.850, -0.53
45.852, -0.17
45.857, 0.83
45.947, 0.74
45.952, -0.45
45.954, -0.83
46.050, -0.58
46.053, -0.08
46.057, 0.79
46.147, 0.71
46.154, -0.72
46.155, -0.90
46.257, 0.81
46.346, 0.76
46.451, -0.41
46.453, -0.09
46.457, 0.76
46.546, 0.79
46.650, -0.52
46.652, -0.18
46.657, 0.74
46.747, 0.75
46.752, -0.46
46.754, -0.86
46.852, -0.34
46.853, -0.13
46.857, 0.79
46.947, 0.74
47.057, 0.81
47.147, 0.74
47.154, -0.82
47.155, -1.01
47.257, 0.77
47.347, 0.75
47.354, -0.97
47.354, -1.04
47.457, 0.83
47.547, 0.75
47.551, -0.22
47.553, -0.61
47.651, -0.42
47.651, -0.40
47.657, 0.76
47.747, 0.75
47.852, -0.31
47.853, -0.10
47.857, 0.76
47.947, 0.66
47.952, -0.41
47.955, -1.01
48.052, -0.31
48.053, -0.10
48.057, 0.79
48.147, 0.71
48.252, -0.34
48.253, -0.09
48.257, 0.74
48.347, 0.74
48.351, -0.22
48.352, -0.45
48.450, -0.62
48.452, -0.31
48.457, 0.80
48.547, 0.75
48.552, -0.51
48.555, -1.11
48.657, 0.75
48.747, 0.75
48.752, -0.52
48.754, -0.78
48.857, 0.77
48.946, 0.77
48.951, -0.24
48.952, -0.46
49.052, -0.33
49.053, -0.09
49.057, 0.76
49.146, 0.76
49.151, -0.21
49.152, -0.46
49.154, -0.78
49.154, -0.99
49.250, -0.52
49.253, -0.09
49.257, 0.80
49.347, 0.75
49.457, 0.79
49.546, 0.80
49.551, -0.19
49.552, -0.53
49.554, -0.75
49.555, -1.09
49.657, 0.80
49.747, 0.72
49.752, -0.45
49.753, -0.76
49.755, -1.02
49.755, -1.10
49.852, -0.26
49.853, -0.11
49.857, 0.82
49.946, 0.76
50.057, 0.75
50.147, 0.70
50.250, -0.57
50.253, -0.11
50.257, 0.79
50.346, 0.82
50.353, -0.68
50.355, -0.93
50.450, -0.57
50.453, -0.09
50.457, 0.78
50.546, 0.78
50.552, -0.28
50.555, -1.01
50.651, -0.50
50.651, -0.37
50.657, 0.79
50.747, 0.75
50.751, -0.19
50.754, -0.72
50.850, -0.59
50.852, -0.33
50.857, 0.74
50.947, 0.75
50.953, -0.71
50.955, -1.02
51.057, 0.82
51.147, 0.72
51.154, -0.76
51.154, -1.00
51.250, -0.53
51.252, -0.12
51.257, 0.81
51.346, 0.76
51.352, -0.47
51.354, -0.92
51.450, -0.53
51.453, -0.09
51.457, 0.76
51.547, 0.71
51.650, -0.52
51.652, -0.27
51.657, 0.78
51.747, 0.73
51.751, -0.18
51.753, -0.56
51.851, -0.41
51.853, -0.09
51.857, 0.78
51.947, 0.71
51.954, -0.73
51.956, -1.10
52.050, -0.50
52.052, -0.33
52.057, 0.78
52.146, 0.78
52.152, -0.34
52.152, -0.51
52.155, -1.04
52.155, -1.04
52.257, 0.74
52.347, 0.69
52.354, -0.88
52.354, -1.01
52.452, -0.38
52.453, -0.12
52.457, 0.76
52.547, 0.69
52.554, -0.83
52.556, -1.09
52.650, -0.50
52.652, -0.35
52.657, 0.79
52.747, 0.70
52.751, -0.21
52.753, -0.47
52.754, -0.82
52.754, -0.92
52.850, -0.54
52.853, -0.10
52.857, 0.80
52.946, 0.78
52.951, -0.20
52.953, -0.67
53.057, 0.76
53.147, 0.72
53.154, -0.93
53.156, -1.06
53.252, -0.38
53.253, -0.15
53.257, 0.74
53.346, 0.76
53.352, -0.42
53.356, -1.10
53.450, -0.53
53.452, -0.31
53.457, 0.72
53.547, 0.74
53.555, -1.08
53.555, -1.08
53.652, -0.38
53.652, -0.22
53.657, 0.80
53.747, 0.71
53.755, -1.01
53.756, -1.13
53.850, -0.57
53.852, -0.31
53.857, 0.79
53.947, 0.72
53.951, -0.20
53.953, -0.67
53.953, -0.74
53.956, -1.13
54.057, 0.71
54.147, 0.72
54.152, -0.28
54.154, -1.03
54.257, 0.71
54.347, 0.74
54.352, -0.29
54.354, -0.93
54.457, 0.70
54.546, 0.76
54.552, -0.47
54.554, -0.83
54.652, -0.34
54.653, -0.16
54.657, 0.80
54.746, 0.76
54.755, -0.99
54.755, -1.08
54.850, -0.54
54.852, -0.28
54.857, 0.71
54.947, 0.74
54.952, -0.32
54.956, -1.10
55.050, -0.57
55.052, -0.29
55.057, 0.80
55.147, 0.71
55.152, -0.45
55.154, -0.85
55.257, 0.75
55.347, 0.70
55.351, -0.26
55.352, -0.49
55.354, -0.80
55.355, -1.11
55.457, 0.78
55.547, 0.71
55.552, -0.46
55.556, -1.08
55.657, 0.75
55.747, 0.75
55.751, -0.19
55.752, -0.40
55.755, -0.93
55.756, -1.12
55.851, -0.46
55.853, -0.08
55.857, 0.77
55.947, 0.75
56.057, 0.72
56.147, 0.71
56.151, -0.22
56.153, -0.49
56.250, -0.60
56.252, -0.35
56.257, 0.71
56.347, 0.70
56.351, -0.20
56.353, -0.61
56.353, -0.67
56.355, -0.99
56.450, -0.50
56.451, -0.37
56.457, 0.71
56.547, 0.70
56.552, -0.28
56.552, -0.28
56.555, -1.00
56.556, -1.09
56.657, 0.78
56.747, 0.73
56.850, -0.55
56.852, -0.41
56.857, 0.73
56.946, 0.76
56.951, -0.18
56.953, -0.64
56.953, -0.78
56.955, -0.93
57.057, 0.76
57.147, 0.68
57.151, -0.15
57.152, -0.38
57.154, -0.87
57.156, -1.11
57.257, 0.69
57.347, 0.74
57.352, -0.52
57.356, -1.10
57.450, -0.58
57.453, -0.13
57.457, 0.74
57.547, 0.63
57.552, -0.25
57.552, -0.30
57.554, -0.74
57.556, -1.11
57.657, 0.72
57.747, 0.64
57.752, -0.39
57.755, -0.96
57.851, -0.39
57.851, -0.34
57.857, 0.69
57.947, 0.70
57.951, -0.23
57.953, -0.65
57.954, -0.78
57.954, -0.83
58.057, 0.71
58.147, 0.74
58.154, -0.79
58.156, -1.10
58.257, 0.70
58.347, 0.73
58.450, -0.63
58.452, -0.28
58.457, 0.73
58.547, 0.66
58.552, -0.32
58.553, -0.70
58.650, -0.53
58.653, -0.09
58.657, 0.67
58.747, 0.69
58.754, -0.75
58.754, -0.84
58.857, 0.73
58.947, 0.71
58.951, -0.17
58.956, -1.13
59.057, 0.71
59.147, 0.75
59.152, -0.53
59.153, -0.83
59.257, 0.68
59.347, 0.70
59.352, -0.53
59.355, -1.04
59.452, -0.26
59.452, -0.12
59.457, 0.72
59.547, 0.67
59.650, -0.53
59.652, -0.13
59.657, 0.69
59.747, 0.72
59.752, -0.47
59.754, -0.81
59.755, -1.05
59.755, -1.07
59.857, 0.72
59.947, 0.70
59.951, -0.19
59.955, -0.98
60.050, -0.62
60.052, -0.32
60.057, 0.67
60.147, 0.67
60.152, -0.33
60.152, -0.45
60.251, -0.44
60.251, -0.36
60.257, 0.79
60.347, 0.67
60.351, -0.19
60.354, -0.83
60.452, -0.28
60.453, -0.10
60.457, 0.72
60.547, 0.73
60.651, -0.53
60.653, -0.08
60.657, 0.75
60.747, 0.73
60.753, -0.58
60.753, -0.86
60.755, -1.02
60.755, -1.12
60.851, -0.32
60.853, -0.10
60.857, 0.68
60.947, 0.67
60.952, -0.39
60.954, -0.80
60.955, -0.91
60.956, -1.10
61.050, -0.58
61.053, -0.10
61.057, 0.70
61.147, 0.64
61.151, -0.27
61.156, -1.10
61.250, -0.52
61.252, -0.31
61.257, 0.78
61.347, 0.72
61.352, -0.34
61.352, -0.56
61.355, -1.00
61.355, -1.13
61.450, -0.56
61.452, -0.15
61.457, 0.69
61.547, 0.70
61.552, -0.37
61.554, -0.85
61.657, 0.73
61.747, 0.67
61.751, -0.27
61.752, -0.47
61.850, -0.60
61.852, -0.31
61.857, 0.72
61.947, 0.66
61.953, -0.55
61.955, -1.04
62.050, -0.55
62.051, -0.36
62.057, 0.69
62.147, 0.69
62.152, -0.47
62.154, -0.92
62.250, -0.54
62.252, -0.34
62.257, 0.71
62.347, 0.70
62.353, -0.47
62.353, -0.71
62.355, -0.96
62.356, -1.11
62.456, 0.66
62.547, 0.66
62.552, -0.39
62.555, -1.12
62.650, -0.55
62.652, -0.35
62.657, 0.67
62.747, 0.67
62.752, -0.44
62.754, -0.86
62.755, -0.92
62.756, -1.06
62.850, -0.54
62.853, -0.10
62.856, 0.65
62.947, 0.71
62.951, -0.25
62.954, -0.85
62.954, -0.90
62.956, -1.08
63.050, -0.52
63.052, -0.30
63.057, 0.73
63.147, 0.69
63.151, -0.20
63.152, -0.47
63.250, -0.54
63.253, -0.09
63.257, 0.71
63.347, 0.70
63.351, -0.19
63.353, -0.50
63.450, -0.55
63.452, -0.22
63.457, 0.71
63.547, 0.68
63.552, -0.23
63.553, -0.70
63.651, -0.41
63.653, -0.08
63.656, 0.65
63.747, 0.63
63.850, -0.54
63.852, -0.35
63.856, 0.64
63.947, 0.67
63.953, -0.42
63.954, -0.66
64.057, 0.69
64.147, 0.66
64.152, -0.26
64.155, -0.90
64.256, 0.65
64.347, 0.62
64.451, -0.46
64.453, -0.09
64.456, 0.63
64.547, 0.69
64.555, -0.98
64.556, -1.11
64.652, -0.23
64.652, -0.20
64.656, 0.63
64.747, 0.69
64.751, -0.21
64.753, -0.69
64.753, -0.79
64.754, -1.00
64.857, 0.70
64.947, 0.62
64.953, -0.69
64.955, -1.04
65.056, 0.66
65.147, 0.68
65.155, -0.93
65.156, -1.11
65.251, -0.45
65.251, -0.41
65.256, 0.63
65.347, 0.69
65.351, -0.22
65.352, -0.47
65.450, -0.54
65.452, -0.31
65.457, 0.67
65.547, 0.57
65.552, -0.28
65.555, -1.02
65.650, -0.60
65.652, -0.29
65.657, 0.67
65.747, 0.61
65.751, -0.27
65.753, -0.49
65.856, 0.67
65.947, 0.56
65.955, -0.97
65.956, -1.09
66.052, -0.31
66.053, -0.13
66.056, 0.66
66.147, 0.58
66.153, -0.53
66.153, -0.57
66.251, -0.48
66.251, -0.39
66.256, 0.64
66.347, 0.65
66.352, -0.40
66.355, -1.05
66.456, 0.58
66.547, 0.65
66.551, -0.20
66.553, -0.81
66.656, 0.61
66.747, 0.66
66.752, -0.46
66.755, -0.97
66.848, -1.00
66.848, -1.00
66.856, 0.65
66.948, 0.56
66.952, -0.47
66.953, -0.78
66.955, -1.03
66.956, -1.12
67.050, -0.58
67.052, -0.25
67.056, 0.64
67.147, 0.56
67.151, -0.20
67.154, -0.79
67.250, -0.55
67.252, -0.27
67.256, 0.65
67.347, 0.62
67.355, -1.01
67.356, -1.09
67.456, 0.66
67.547, 0.68
67.554, -0.80
67.554, -0.99
67.650, -0.53
67.652, -0.29
67.656, 0.55
67.747, 0.59
67.751, -0.20
67.754, -0.77
67.850, -0.59
67.852, -0.30
67.857, 0.68
67.947, 0.59
67.953, -0.45
67.953, -0.66
68.052, -0.32
68.053, -0.11
68.056, 0.64
68.147, 0.65
68.151, -0.19
68.153, -0.62
68.256, 0.60
68.347, 0.68
68.351, -0.21
68.352, -0.50
68.355, -0.97
68.356, -1.11
68.452, -0.25
68.452, -0.25
68.456, 0.61
68.547, 0.70
68.551, -0.20
68.553, -0.58
68.652, -0.30
68.653, -0.10
68.656, 0.66
68.747, 0.69
68.751, -0.22
68.753, -0.53
68.852, -0.28
68.852, -0.12
68.856, 0.65
68.947, 0.59
68.953, -0.46
68.953, -0.60
69.056, 0.64
69.147, 0.56
69.151, -0.21
69.154, -0.80
69.251, -0.49
69.252, -0.12
69.257, 0.68
69.347, 0.62
69.352, -0.23
69.352, -0.35
69.354, -0.73
69.354, -0.93
69.456, 0.63
69.547, 0.57
69.551, -0.19
69.555, -0.99
69.656, 0.64
69.747, 0.56
69.754, -0.81
69.754, -0.85
69.850, -0.53
69.853, -0.14
69.856, 0.64
69.947, 0.57
69.952, -0.30
69.952, -0.46
70.056, 0.64
70.147, 0.57
70.153, -0.71
70.154, -0.86
70.250, -0.49
70.252, -0.32
70.256, 0.60
70.347, 0.58
70.353, -0.90
70.355, -0.99
70.456, 0.61
70.547, 0.56
70.650, -0.51
70.652, -0.34
70.656, 0.60
70.747, 0.61
70.751, -0.25
70.752, -0.48
70.754, -0.80
70.756, -1.09
70.850, -0.51
70.852, -0.32
70.856, 0.65
70.947, 0.59
70.951, -0.27
70.952, -0.52
70.953, -0.85
70.955, -0.98
71.056, 0.56
71.147, 0.62
71.151, -0.20
71.152, -0.50
71.252, -0.37
71.253, -0.10
71.256, 0.63
71.348, 0.55
71.351, -0.20
71.354, -0.88
71.456, 0.54
71.547, 0.61
71.554, -0.82
71.555, -1.01
71.656, 0.63
71.747, 0.66
71.751, -0.22
71.752, -0.50
71.755, -1.01
71.755, -1.09
71.852, -0.22
71.852, -0.20
71.856, 0.61
71.947, 0.60
71.952, -0.40
71.953, -0.72
71.955, -1.00
71.955, -1.04
72.056, 0.59
72.147, 0.59
72.154, -0.78
72.154, -0.82
72.252, -0.35
72.253, -0.13
72.256, 0.62
72.347, 0.61
72.353, -0.79
72.354, -0.81
72.456, 0.54
72.547, 0.59
72.551, -0.21
72.552, -0.53
72.650, -0.52
72.652, -0.15
72.656, 0.60
72.747, 0.60
72.755, -0.95
72.756, -1.10
72.850, -0.54
72.851, -0.33
72.856, 0.60
72.947, 0.59
72.955, -1.00
72.956, -1.11
73.051, -0.46
73.052, -0.20
73.056, 0.58
73.147, 0.59
73.154, -0.88
73.156, -1.11
73.256, 0.59
73.347, 0.67
73.354, -0.74
73.354, -0.82
73.450, -0.56
73.453, -0.10
73.456, 0.60
73.548, 0.56
73.553, -0.44
73.553, -0.62
73.555, -0.99
73.555, -1.05
73.650, -0.53
73.652, -0.33
73.656, 0.61
73.747, 0.59
73.751, -0.24
73.752, -0.50
73.850, -0.63
73.853, -0.11
73.856, 0.60
73.947, 0.58
74.052, -0.31
74.052, -0.16
74.056, 0.63
74.147, 0.56
74.151, -0.22
74.152, -0.57
74.153, -0.79
74.155, -0.88
74.250, -0.61
74.252, -0.26
74.256, 0.59
74.348, 0.56
74.353, -0.65
74.355, -0.94
74.450, -0.57
74.452, -0.22
74.456, 0.58
74.547, 0.59
74.551, -0.20
74.552, -0.39
74.652, -0.31
74.652, -0.16
74.656, 0.58
74.747, 0.57
74.753, -0.80
74.754, -1.05
74.856, 0.61
74.947, 0.57
74.953, -0.56
74.953, -0.69
74.955, -1.04
74.956, -1.13
75.050, -0.53
75.052, -0.31
75.056, 0.60
75.148, 0.55
75.151, -0.18
75.152, -0.39
75.155, -0.91
75.156, -1.12
75.250, -0.56
75.252, -0.25
75.256, 0.55
75.348, 0.53
75.354, -0.70
75.355, -1.00
75.452, -0.34
75.452, -0.18
75.456, 0.58
75.547, 0.62
75.552, -0.44
75.554, -0.73
75.656, 0.61
75.747, 0.61
75.753, -0.84
75.756, -1.10
75.850, -0.63
75.852, -0.30
75.856, 0.56
75.947, 0.59
75.953, -0.50
75.953, -0.54
75.955, -0.99
75.956, -1.14
76.056, 0.59
76.148, 0.54
76.250, -0.62
76.252, -0.27
76.256, 0.59
76.347, 0.57
76.351, -0.20
76.353, -0.58
76.456, 0.53
76.547, 0.57
76.555, -0.93
76.555, -1.05
76.650, -0.52
76.652, -0.34
76.656, 0.54
76.747, 0.56
76.754, -0.85
76.756, -1.12
76.852, -0.31
76.852, -0.16
76.856, 0.60
76.947, 0.58
77.051, -0.45
77.053, -0.12
77.056, 0.61
77.147, 0.65
77.152, -0.33
77.153, -0.63
77.155, -1.00
77.156, -1.15
77.252, -0.35
77.253, -0.12
77.256, 0.59
77.348, 0.53
77.353, -0.81
77.356, -1.12
77.456, 0.51
77.548, 0.54
77.551, -0.26
77.553, -0.62
77.555, -1.00
77.556, -1.12
77.650, -0.51
77.652, -0.17
77.656, 0.61
77.747, 0.61
77.752, -0.26
77.752, -0.29
77.852, -0.35
77.852, -0.21
77.856, 0.54
77.948, 0.53
78.056, 0.52
78.148, 0.56
78.153, -0.48
78.153, -0.59
78.250, -0.55
78.253, -0.12
78.256, 0.63
78.347, 0.62
78.354, -0.71
78.355, -0.95
78.452, -0.31
78.453, -0.12
78.456, 0.58
78.547, 0.57
78.552, -0.27
78.552, -0.44
78.554, -0.96
78.556, -1.15
78.656, 0.59
78.747, 0.66
78.752, -0.28
78.754, -0.96
78.850, -0.60
78.851, -0.40
78.856, 0.53
78.947, 0.57
78.952, -0.53
78.953, -0.74
79.051, -0.57
79.052, -0.12
79.056, 0.64
79.147, 0.59
79.151, -0.25
79.152, -0.45
79.154, -1.00
79.156, -1.09
79.256, 0.56
79.348, 0.55
79.352, -0.47
79.355, -0.91
79.456, 0.54
79.548, 0.55
79.555, -1.03
79.556, -1.11
79.656, 0.61
79.748, 0.54
79.752, -0.35
79.754, -0.78
79.850, -0.50
79.852, -0.30
79.856, 0.59
79.948, 0.55
79.952, -0.43
79.954, -0.83
80.050, -0.54
80.052, -0.30
80.056, 0.54
80.148, 0.54
80.151, -0.17
80.154, -0.69
80.256, 0.54
80.348, 0.54
80.354, -0.76
80.356, -1.15
80.452, -0.29
80.453, -0.12
80.456, 0.59
80.547, 0.60
80.552, -0.20
80.554, -0.73
80.652, -0.30
80.652, -0.15
80.656, 0.52
80.748, 0.54
80.754, -0.91
80.756, -1.12
80.851, -0.43
80.851, -0.34
80.856, 0.59
80.947, 0.59
80.952, -0.44
80.954, -0.67
81.056, 0.55
81.148, 0.54
81.152, -0.34
81.153, -0.66
81.256, 0.53
81.347, 0.56
81.352, -0.39
81.355, -1.03
81.456, 0.51
81.548, 0.54
81.656, 0.60
81.748, 0.51
81.752, -0.36
81.754, -0.79
81.850, -0.56
81.851, -0.44
81.856, 0.52
81.947, 0.56
81.954, -0.85
81.955, -0.96
82.056, 0.60
82.148, 0.46
82.151, -0.17
82.153, -0.69
82.256, 0.54
82.348, 0.53
82.352, -0.36
82.352, -0.44
82.355, -0.99
82.356, -1.13
82.452, -0.27
82.452, -0.15
82.456, 0.60
82.548, 0.46
82.552, -0.46
82.554, -0.85
82.652, -0.32
82.652, -0.16
82.656, 0.51
82.748, 0.54
82.751, -0.19
82.754, -0.85
82.856, 0.58
82.948, 0.50
82.951, -0.17
82.953, -0.66
83.056, 0.51
83.148, 0.49
83.151, -0.18
83.153, -0.63
83.155, -1.05
83.155, -1.11
83.256, 0.55
83.348, 0.49
83.351, -0.24
83.353, -0.77
83.355, -0.99
83.356, -1.14
83.452, -0.29
83.452, -0.23
83.456, 0.51
83.548, 0.51
83.554, -0.78
83.554, -0.95
83.650, -0.56
83.652, -0.36
83.656, 0.59
83.748, 0.47
83.856, 0.56
83.948, 0.54
83.954, -0.69
83.955, -0.99
84.056, 0.55
84.148, 0.52
84.153, -0.77
84.155, -1.08
84.249, -0.74
84.251, -0.54
84.256, 0.55
84.348, 0.52
84.354, -0.81
84.355, -1.02
84.450, -0.63
84.452, -0.16
84.456, 0.51
84.548, 0.51
84.552, -0.47
84.553, -0.67
84.650, -0.52
84.652, -0.17
84.656, 0.56
84.748, 0.51
84.752, -0.38
84.754, -0.76
84.851, -0.51
84.851, -0.43
84.856, 0.51
84.948, 0.53
85.050, -0.58
85.052, -0.32
85.056, 0.57
85.148, 0.49
85.153, -0.51
85.153, -0.55
85.250, -0.56
85.252, -0.30
85.256, 0.53
85.348, 0.51
85.352, -0.23
85.352, -0.41
85.450, -0.51
85.451, -0.38
85.456, 0.50
85.548, 0.54
85.555, -1.00
85.556, -1.10
85.656, 0.55
85.748, 0.52
85.754, -0.73
85.754, -0.83
85.856, 0.53
85.948, 0.49
85.954, -0.80
85.955, -1.04
86.056, 0.52
86.148, 0.52
86.256, 0.55
86.348, 0.54
86.355, -1.09
86.356, -1.15
86.450, -0.55
86.452, -0.18
86.456, 0.54
86.548, 0.54
86.551, -0.18
86.553, -0.43
86.656, 0.53
86.748, 0.55
86.754, -0.80
86.755, -0.99
86.850, -0.52
86.852, -0.38
86.856, 0.53
86.948, 0.53
86.951, -0.18
86.954, -0.91
86.955, -1.08
86.956, -1.15
87.056, 0.52
87.148, 0.49
87.151, -0.19
87.153, -0.63
87.155, -1.02
87.155, -1.08
87.250, -0.60
87.252, -0.33
87.256, 0.58
87.348, 0.47
87.353, -0.73
87.355, -1.00
87.450, -0.62
87.452, -0.17
87.456, 0.49
87.548, 0.46
87.650, -0.51
87.653, -0.13
87.656, 0.51
87.748, 0.47
87.751, -0.18
87.753, -0.66
87.850, -0.64
87.852, -0.26
87.856, 0.52
87.948, 0.52
87.953, -0.71
87.956, -1.10
88.050, -0.56
88.052, -0.34
88.056, 0.59
88.148, 0.46
88.155, -1.01
88.155, -1.09
88.256, 0.50
88.348, 0.52
88.354, -0.72
88.355, -0.99
88.452, -0.35
88.452, -0.15
88.456, 0.54
88.548, 0.49
88.553, -0.65
88.555, -0.99
88.656, 0.49
88.748, 0.49
88.752, -0.28
88.752, -0.47
88.851, -0.53
88.851, -0.36
88.856, 0.48
88.948, 0.49
89.056, 0.52
89.148, 0.55
89.256, 0.47
89.348, 0.42
89.352, -0.31
89.353, -0.61
89.456, 0.52
89.548, 0.50
89.552, -0.25
89.552, -0.31
89.554, -1.03
89.556, -1.11
89.656, 0.52
89.748, 0.46
89.755, -0.94
89.756, -1.13
89.851, -0.51
89.851, -0.40
89.855, 0.46
89.948, 0.41
89.952, -0.36
89.954, -0.68
90.056, 0.49
90.148, 0.51
90.152, -0.44
90.154, -0.76
90.250, -0.52
90.252, -0.34
90.256, 0.47
90.348, 0.46
90.353, -0.81
90.355, -1.02
90.450, -0.54
90.452, -0.34
90.456, 0.54
90.548, 0.43
90.552, -0.45
90.554, -0.65
90.655, 0.46
90.748, 0.46
90.752, -0.22
90.753, -0.70
90.856, 0.48
90.948, 0.41
90.952, -0.46
90.953, -0.74
90.955, -1.00
90.956, -1.11
91.050, -0.54
91.052, -0.21
91.056, 0.53
91.148, 0.52
91.151, -0.18
91.152, -0.41
91.250, -0.53
91.252, -0.25
91.256, 0.49
91.348, 0.45
91.354, -0.82
91.354, -0.98
91.452, -0.27
91.452, -0.20
91.456, 0.48
91.548, 0.46
91.553, -0.80
91.555, -1.04
91.650, -0.53
91.652, -0.16
91.656, 0.57
91.748, 0.48
91.850, -0.60
91.852, -0.28
91.856, 0.52
91.948, 0.50
91.952, -0.32
91.954, -0.75
92.051, -0.56
92.051, -0.51
92.055, 0.43
92.148, 0.49
92.152, -0.44
92.154, -0.79
92.256, 0.57
92.348, 0.45
92.351, -0.21
92.352, -0.37
92.354, -0.84
92.354, -1.04
92.450, -0.53
92.452, -0.33
92.455, 0.39
92.548, 0.48
92.552, -0.24
92.552, -0.31
92.555, -1.01
92.556, -1.13
92.652, -0.27
92.652, -0.16
92.656, 0.48
92.748, 0.42
92.752, -0.44
92.754, -0.81
92.850, -0.55
92.852, -0.31
92.856, 0.48
92.948, 0.45
92.952, -0.40
92.953, -0.62
92.956, -1.12
92.956, -1.16
93.055, 0.42
93.148, 0.48
93.151, -0.18
93.152, -0.42
93.153, -0.82
93.156, -1.13
93.250, -0.53
93.252, -0.32
93.255, 0.43
93.348, 0.44
93.351, -0.20
93.352, -0.42
93.353, -0.82
93.355, -1.01
93.450, -0.55
93.452, -0.31
93.455, 0.39
93.548, 0.40
93.552, -0.44
93.553, -0.66
93.655, 0.46
93.748, 0.40
93.752, -0.39
93.754, -0.87
93.755, -0.99
93.755, -1.02
93.855, 0.43
93.948, 0.43
93.951, -0.20
93.954, -0.74
94.050, -0.53
94.052, -0.27
94.055, 0.45
94.148, 0.46
94.255, 0.44
94.348, 0.44
94.351, -0.20
94.352, -0.44
94.451, -0.58
94.452, -0.14
94.455, 0.43
94.548, 0.43
94.551, -0.18
94.554, -0.64
94.650, -0.52
94.652, -0.31
94.655, 0.47
94.748, 0.42
94.751, -0.21
94.752, -0.36
94.855, 0.43
94.948, 0.42
94.952, -0.47
94.953, -0.74
94.955, -1.01
94.955, -1.07
95.052, -0.28
95.052, -0.18
95.055, 0.36
95.148, 0.41
95.152, -0.47
95.154, -0.78
95.155, -1.05
95.156, -1.16
95.251, -0.45
95.252, -0.12
95.255, 0.35
95.348, 0.44
95.352, -0.45
95.354, -0.71
95.455, 0.46
95.548, 0.46
95.552, -0.24
95.552, -0.31
95.655, 0.45
95.748, 0.46
95.754, -0.84
95.755, -0.99
95.855, 0.44
95.948, 0.49
95.952, -0.43
95.955, -0.97
96.055, 0.42
96.148, 0.45
96.151, -0.20
96.153, -0.69
96.251, -0.50
96.251, -0.47
96.255, 0.40
96.348, 0.49
96.352, -0.42
96.356, -1.12
96.455, 0.42
96.548, 0.45
96.552, -0.39
96.554, -0.79
96.650, -0.54
96.652, -0.32
96.655, 0.42
96.748, 0.45
96.752, -0.47
96.753, -0.78
96.851, -0.57
96.851, -0.48
96.855, 0.37
96.948, 0.48
96.955, -1.03
96.955, -1.09
97.050, -0.57
97.052, -0.39
97.055, 0.40
97.148, 0.47
97.152, -0.46
97.155, -1.03
97.250, -0.53
97.252, -0.31
97.255, 0.45
97.348, 0.47
97.354, -0.88
97.356, -1.08
97.455, 0.34
97.548, 0.44
97.554, -0.82
97.555, -1.04
97.650, -0.53
97.652, -0.24
97.656, 0.48
97.748, 0.39
97.751, -0.26
97.754, -1.01
97.850, -0.54
97.852, -0.24
97.856, 0.50
97.948, 0.43
97.951, -0.18
97.954, -0.96
98.052, -0.24
98.052, -0.21
98.055, 0.41
98.148, 0.42
98.252, -0.23
98.252, -0.18
98.255, 0.40
98.348, 0.43
98.355, -0.96
98.356, -1.15
98.450, -0.55
98.452, -0.33
98.455, 0.43
98.548, 0.50
98.553, -0.81
98.555, -1.01
98.655, 0.43
98.748, 0.46
98.754, -0.76
98.754, -0.80
98.850, -0.53
98.852, -0.30
98.855, 0.35
98.948, 0.42
98.952, -0.42
98.954, -0.71
98.954, -0.87
98.956, -1.13
99.055, 0.33
99.148, 0.45
99.153, -0.59
99.156, -1.10
99.255, 0.34
99.348, 0.47
99.353, -0.73
99.355, -1.08
99.455, 0.34
99.548, 0.41
99.552, -0.36
99.553, -0.64
99.650, -0.58
99.652, -0.25
99.655, 0.46
99.748, 0.42
99.752, -0.43
99.754, -0.68
99.755, -0.99
99.756, -1.13
99.851, -0.57
99.851, -0.49
99.856, 0.47
99.948, 0.40
100.055, 0.47
100.148, 0.41
100.151, -0.19
100.154, -0.79
100.255, 0.45
100.348, 0.41
100.351, -0.20
100.353, -0.79
100.355, -0.96
100.356, -1.11
100.455, 0.44
100.548, 0.42
100.554, -0.93
100.554, -1.02
100.650, -0.59
100.652, -0.33
100.655, 0.45
100.748, 0.42
100.753, -0.70
100.756, -1.07
100.855, 0.44
100.948, 0.41
100.952, -0.43
100.953, -0.77
101.055, 0.45
101.148, 0.40
101.255, 0.44
101.348, 0.40
101.451, -0.51
101.451, -0.45
101.455, 0.44
101.548, 0.43
101.551, -0.21
101.553, -0.64
101.555, -1.02
101.556, -1.10
101.655, 0.43
101.748, 0.42
101.753, -0.62
101.756, -1.08
101.855, 0.44
101.948, 0.41
101.951, -0.19
101.952, -0.40
101.955, -1.00
101.956, -1.12
102.056, 0.47
102.148, 0.41
102.255, 0.44
102.348, 0.39
102.352, -0.23
102.352, -0.33
102.354, -0.70
102.354, -0.78
102.455, 0.43
102.548, 0.44
102.552, -0.49
102.554, -0.68
102.655, 0.47
102.748, 0.42
102.754, -0.70
102.756, -1.14
102.852, -0.25
102.852, -0.16
102.855, 0.41
102.948, 0.43
102.952, -0.30
102.952, -0.36
102.953, -0.70
102.955, -1.07
103.050, -0.53
103.052, -0.15
103.055, 0.43
103.148, 0.44
103.155, -1.03
103.156, -1.12
103.255, 0.43
103.348, 0.41
103.352, -0.28
103.353, -0.50
103.355, -0.94
103.356, -1.11
103.455, 0.44
103.548, 0.42
103.552, -0.31
103.554, -0.88
103.655, 0.39
103.748, 0.46
103.753, -0.57
103.756, -1.09
103.851, -0.56
103.852, -0.16
103.855, 0.37
103.948, 0.48
103.952, -0.29
103.952, -0.36
103.954, -0.68
103.955, -1.10
104.055, 0.41
104.148, 0.38
104.151, -0.19
104.152, -0.41
104.250, -0.55
104.252, -0.32
104.255, 0.42
104.348, 0.40
104.353, -0.67
104.355, -1.05
104.450, -0.56
104.452, -0.23
104.456, 0.48
104.548, 0.40
104.552, -0.34
104.553, -0.69
104.555, -0.95
104.556, -1.12
104.652, -0.25
104.652, -0.14
104.655, 0.44
104.748, 0.40
104.850, -0.58
104.852, -0.24
104.855, 0.40
104.948, 0.42
104.954, -0.89
104.954, -1.00
105.055, 0.40
105.148, 0.38
105.151, -0.21
105.152, -0.44
105.251, -0.55
105.251, -0.38
105.255, 0.47
105.348, 0.42
105.452, -0.38
105.452, -0.16
105.455, 0.37
105.548, 0.47
105.555, -0.95
105.556, -1.12
105.651, -0.55
105.652, -0.31
105.655, 0.44
105.748, 0.38
105.751, -0.22
105.752, -0.43
105.753, -0.77
105.756, -1.07
105.855, 0.40
105.948, 0.43
105.953, -0.38
105.953, -0.59
106.050, -0.53
106.052, -0.35
106.055, 0.42
106.148, 0.40
106.151, -0.22
106.153, -0.46
106.153, -0.53
106.154, -1.04
106.250, -0.54
106.252, -0.24
106.255, 0.41
106.348, 0.44
106.351, -0.22
106.354, -0.85
106.450, -0.56
106.452, -0.20
106.455, 0.37
106.548, 0.47
106.551, -0.22
106.552, -0.45
106.555, -1.06
106.556, -1.14
106.650, -0.54
106.652, -0.30
106.655, 0.39
106.748, 0.43
106.754, -0.82
106.755, -1.06
106.850, -0.58
106.852, -0.32
106.855, 0.41
106.948, 0.40
106.952, -0.28
106.952, -0.36
106.954, -0.86
106.954, -0.99
107.052, -0.25
107.052, -0.12
107.055, 0.44
107.148, 0.38
107.154, -0.99
107.154, -1.02
107.255, 0.45
107.348, 0.41
107.352, -0.41
107.353, -0.62
107.450, -0.56
107.452, -0.29
107.455, 0.40
107.548, 0.39
107.554, -0.84
107.555, -1.02
107.650, -0.61
107.652, -0.29
107.655, 0.40
107.749, 0.36
107.755, -0.99
107.756, -1.13
107.855, 0.41
107.948, 0.41
107.952, -0.25
107.952, -0.36
107.954, -0.94
107.956, -1.12
108.050, -0.55
108.052, -0.33
108.055, 0.39
108.148, 0.37
108.255, 0.42
108.348, 0.37
108.455, 0.39
108.548, 0.40
108.552, -0.32
108.552, -0.38
108.655, 0.43
108.749, 0.35
108.752, -0.29
108.755, -1.07
108.851, -0.57
108.851, -0.47
108.855, 0.39
108.948, 0.38
109.051, -0.47
109.051, -0.37
109.055, 0.42
109.148, 0.36
109.153, -0.69
109.154, -1.04
109.250, -0.59
109.252, -0.24
109.255, 0.35
109.348, 0.40
109.354, -0.84
109.356, -1.14
109.450, -0.58
109.452, -0.14
109.455, 0.39
109.548, 0.38
109.655, 0.35
109.748, 0.40
109.755, -1.00
109.756, -1.12
109.855, 0.37
109.948, 0.37
109.954, -0.97
109.955, -1.08
110.050, -0.55
110.052, -0.18
110.055, 0.39
110.149, 0.34
110.155, -1.02
110.156, -1.11
110.250, -0.52
110.252, -0.31
110.255, 0.39
110.348, 0.36
110.353, -0.69
110.355, -1.05
110.450, -0.55
110.452, -0.35
110.455, 0.33
110.548, 0.47
110.552, -0.23
110.552, -0.31
110.554, -0.95
110.556, -1.10
110.655, 0.41
110.748, 0.38
110.751, -0.20
110.753, -0.68
110.755, -0.95
110.756, -1.07
110.850, -0.61
110.852, -0.28
110.855, 0.39
110.948, 0.43
110.955, -1.06
110.956, -1.13
111.055, 0.42
111.148, 0.38
111.155, -1.02
111.156, -1.14
111.252, -0.27
111.252, -0.13
111.255, 0.38
111.349, 0.35
111.352, -0.27
111.356, -1.07
111.452, -0.24
111.452, -0.15
111.455, 0.41
111.548, 0.37
111.655, 0.35
111.749, 0.35
111.855, 0.44
111.948, 0.37
111.951, -0.19
111.952, -0.38
111.954, -0.82
111.956, -1.12
112.050, -0.63
112.052, -0.33
112.055, 0.36
112.149, 0.36
112.152, -0.21
112.152, -0.31
112.153, -0.74
112.155, -1.05
112.252, -0.27
112.253, -0.12
112.255, 0.42
112.348, 0.39
112.351, -0.20
112.352, -0.43
112.354, -0.74
112.354, -0.78
112.455, 0.38
112.548, 0.40
112.552, -0.27
112.552, -0.42
112.553, -0.70
112.554, -1.09
112.651, -0.55
112.651, -0.44
112.655, 0.37
112.749, 0.34
112.852, -0.26
112.852, -0.16
112.855, 0.40
112.949, 0.35
112.952, -0.38
112.953, -0.59
113.050, -0.54
113.053, -0.11
113.055, 0.38
113.148, 0.41
113.151, -0.17
113.153, -0.61
113.155, -0.99
113.156, -1.11
113.255, 0.37
113.349, 0.36
113.353, -0.42
113.354, -0.78
113.450, -0.58
113.452, -0.34
113.455, 0.45
113.548, 0.40
113.554, -0.76
113.555, -0.93
113.655, 0.39
113.748, 0.37
113.752, -0.39
113.755, -1.04
113.852, -0.23
113.852, -0.19
113.855, 0.34
113.949, 0.36
113.951, -0.17
113.952, -0.45
114.050, -0.48
114.051, -0.29
114.055, 0.40
114.149, 0.35
114.154, -0.74
114.154, -0.91
114.255, 0.39
114.348, 0.38
114.352, -0.42
114.355, -1.02
114.455, 0.36
114.548, 0.38
114.554, -1.01
114.554, -1.00
114.650, -0.53
114.652, -0.26
114.655, 0.43
114.748, 0.39
114.751, -0.21
114.753, -0.75
114.855, 0.39
114.948, 0.36
114.951, -0.23
114.952, -0.42
114.955, -1.01
114.956, -1.12
115.055, 0.40
115.148, 0.47
115.154, -1.01
115.156, -1.15
115.250, -0.59
115.252, -0.29
115.255, 0.40
115.349, 0.36
115.353, -0.47
115.355, -1.07
115.455, 0.36
115.549, 0.36
115.552, -0.27
115.555, -0.95
115.650, -0.50
115.652, -0.26
115.655, 0.33
115.749, 0.32
115.754, -0.97
115.755, -1.08
115.855, 0.41
115.949, 0.35
115.951, -0.20
115.953, -0.62
116.050, -0.58
116.052, -0.23
116.055, 0.34
116.149, 0.36
116.153, -0.85
116.155, -1.06
116.255, 0.34
116.349, 0.32
116.354, -0.84
116.355, -1.04
116.455, 0.40
116.549, 0.36
116.552, -0.27
116.552, -0.41
116.553, -0.78
116.555, -1.00
116.655, 0.39
116.748, 0.37
116.755, -0.98
116.756, -1.09
116.855, 0.37
116.948, 0.36
116.953, -0.47
116.955, -1.09
117.051, -0.48
117.052, -0.29
117.055, 0.39
117.149, 0.34
117.151, -0.19
117.152, -0.40
117.154, -0.62
117.155, -1.04
117.255, 0.37
117.349, 0.31
117.351, -0.21
117.352, -0.46
117.355, -0.96
117.355, -1.04
117.455, 0.40
117.549, 0.26
117.555, -0.92
117.556, -1.10
117.655, 0.41
117.749, 0.33
117.752, -0.25
117.754, -0.81
117.851, -0.54
117.851, -0.42
117.855, 0.36
117.949, 0.25
118.049, -0.79
118.051, -0.37
118.055, 0.42
118.149, 0.35
118.151, -0.24
118.152, -0.42
118.255, 0.33
118.349, 0.29
118.352, -0.43
118.353, -0.65
118.455, 0.39
118.548, 0.37
118.552, -0.29
118.553, -0.64
118.655, 0.33
118.749, 0.33
118.754, -1.02
118.756, -1.13
118.855, 0.39
118.949, 0.32
118.955, -0.93
118.955, -1.07
119.055, 0.35
119.148, 0.37
119.151, -0.19
119.154, -0.71
119.154, -0.80
119.156, -1.14
119.250, -0.57
119.252, -0.29
119.255, 0.37
119.349, 0.33
119.352, -0.40
119.353, -0.61
119.451, -0.43
119.451, -0.33
119.455, 0.36
119.549, 0.35
119.552, -0.39
119.553, -0.74
119.555, -0.99
119.555, -1.07
119.650, -0.54
119.652, -0.22
119.655, 0.33
119.749, 0.24
119.751, -0.23
119.752, -0.44
119.753, -0.90
119.756, -1.11
119.850, -0.48
119.852, -0.23
119.855, 0.37
119.949, 0.34
119.954, -0.88
119.954, -1.02
120.055, 0.34
120.149, 0.25
120.151, -0.22
120.153, -0.45
120.255, 0.40
120.349, 0.29
120.455, 0.32
120.549, 0.26
120.552, -0.28
120.552, -0.42
120.655, 0.37
120.749, 0.25
120.751, -0.24
120.752, -0.41
120.753, -0.82
120.755, -1.03
120.851, -0.43
120.852, -0.29
120.855, 0.37
120.949, 0.29
120.954, -0.88
120.955, -1.05
121.050, -0.50
121.052, -0.28
121.055, 0.35
121.149, 0.33
121.153, -0.58
121.156, -1.10
121.255, 0.38
121.349, 0.30
121.449, -0.73
121.452, -0.29
121.455, 0.33
121.549, 0.27
121.552, -0.29
121.552, -0.41
121.555, -0.91
121.556, -1.09
121.650, -0.51
121.652, -0.29
121.655, 0.39
121.749, 0.30
121.755, -0.94
121.756, -1.07
121.855, 0.36
121.949, 0.26
121.952, -0.35
121.956, -1.10
122.055, 0.32
122.149, 0.23
122.153, -0.78
122.155, -0.99
122.255, 0.39
122.349, 0.31
122.352, -0.47
122.353, -0.65
122.450, -0.57
122.452, -0.27
122.455, 0.29
122.549, 0.25
122.552, -0.41
122.556, -1.09
122.655, 0.34
122.749, 0.30
122.752, -0.41
122.755, -1.00
122.850, -0.49
122.852, -0.26
122.855, 0.33
122.949, 0.33
122.953, -0.46
122.953, -0.62
123.050, -0.55
123.052, -0.27
123.055, 0.32
123.149, 0.32
123.152, -0.31
123.152, -0.36
123.154, -0.89
123.156, -1.07
123.250, -0.54
123.252, -0.29
123.255, 0.33
123.349, 0.25
123.352, -0.26
123.352, -0.40
123.353, -0.81
123.356, -1.11
123.455, 0.33
123.549, 0.26
123.554, -0.90
123.555, -1.07
123.650, -0.49
123.652, -0.27
123.655, 0.36
123.749, 0.32
123.752, -0.32
123.754, -0.80
123.754, -0.98
123.756, -1.10
123.855, 0.33
123.949, 0.25
124.050, -0.60
124.052, -0.35
124.055, 0.33
124.149, 0.30
124.152, -0.40
124.155, -1.11
124.255, 0.41
124.349, 0.28
124.450, -0.58
124.452, -0.26
124.455, 0.33
124.549, 0.30
124.551, -0.25
124.556, -1.12
124.655, 0.29
124.749, 0.32
124.752, -0.37
124.754, -0.97
124.851, -0.45
124.851, -0.32
124.855, 0.33
124.949, 0.32
124.952, -0.44
124.953, -0.63
124.955, -0.92
124.956, -1.09
125.055, 0.37
125.149, 0.30
125.154, -0.98
125.156, -1.10
125.255, 0.31
125.349, 0.31
125.351, -0.22
125.353, -0.68
125.455, 0.33
125.549, 0.30
125.555, -1.03
125.555, -1.04
125.651, -0.48
125.652, -0.23
125.655, 0.33
125.749, 0.30
125.753, -0.80
125.755, -0.97
125.850, -0.51
125.852, -0.27
125.855, 0.36
125.949, 0.35
125.954, -0.84
125.955, -0.95
126.055, 0.30
126.149, 0.33
126.153, -0.81
126.155, -0.97
126.255, 0.35
126.349, 0.31
126.455, 0.31
126.549, 0.31
126.655, 0.32
126.749, 0.31
126.752, -0.42
126.753, -0.67
126.755, -0.98
126.755, -1.04
126.855, 0.33
126.949, 0.27
126.952, -0.32
126.954, -0.93
127.055, 0.32
127.149, 0.33
127.153, -0.70
127.154, -1.04
127.255, 0.40
127.349, 0.30
127.351, -0.20
127.352, -0.34
127.355, -0.87
127.356, -1.10
127.455, 0.31
127.549, 0.29
127.554, -0.73
127.554, -0.87
127.655, 0.30
127.749, 0.29
127.752, -0.39
127.754, -0.88
127.755, -1.01
127.755, -1.08
127.855, 0.34
127.949, 0.31
128.050, -0.53
128.052, -0.30
128.055, 0.31
128.149, 0.34
128.153, -0.66
128.155, -0.96
128.255, 0.32
128.349, 0.28
128.351, -0.20
128.354, -0.69
128.450, -0.54
128.452, -0.34
128.455, 0.33
128.549, 0.34
128.552, -0.25
128.553, -0.55
128.655, 0.32
128.749, 0.28
128.752, -0.43
128.753, -0.74
128.855, 0.30
128.949, 0.31
128.953, -0.50
128.953, -0.59
128.955, -0.92
128.956, -1.08
129.055, 0.34
129.149, 0.27
129.152, -0.24
129.152, -0.37
129.255, 0.30
129.349, 0.27
129.352, -0.43
129.354, -0.96
129.450, -0.53
129.452, -0.34
129.455, 0.28
129.549, 0.27
129.552, -0.39
129.555, -1.01
129.651, -0.43
129.652, -0.29
129.655, 0.30
129.749, 0.29
129.753, -0.81
129.754, -1.06
129.855, 0.32
129.949, 0.26
129.952, -0.39
129.954, -0.68
130.055, 0.30
130.149, 0.29
130.250, -0.48
130.252, -0.29
130.255, 0.29
130.349, 0.26
130.352, -0.38
130.356, -1.06
130.455, 0.28
130.549, 0.27
130.552, -0.25
130.555, -1.08
130.655, 0.32
130.749, 0.33
130.755, -1.04
130.756, -1.13
130.850, -0.51
130.852, -0.26
130.855, 0.35
130.949, 0.27
130.952, -0.25
130.952, -0.30
130.954, -0.97
130.956, -1.11
131.055, 0.28
131.149, 0.27
131.152, -0.30
131.152, -0.37
131.155, -0.91
131.155, -1.02
131.251, -0.49
131.252, -0.31
131.255, 0.30
131.349, 0.26
131.353, -0.76
131.356, -1.10
131.450, -0.52
131.452, -0.26
131.454, 0.27
131.549, 0.31
131.553, -0.45
131.554, -0.99
131.655, 0.28
131.749, 0.31
131.755, -1.04
131.755, -1.08
131.855, 0.34
131.949, 0.32
131.954, -0.90
131.956, -1.09
132.054, 0.27
132.149, 0.30
132.153, -0.49
132.153, -0.65
132.255, 0.30
132.349, 0.33
132.353, -0.58
132.353, -0.62
132.455, 0.28
132.549, 0.33
132.552, -0.37
132.553, -0.62
132.655, 0.29
132.749, 0.31
132.752, -0.30
132.752, -0.30
132.753, -0.74
132.755, -0.87
132.851, -0.46
132.851, -0.35
132.855, 0.30
132.949, 0.28
132.955, -1.01
132.956, -1.13
133.055, 0.31
133.149, 0.32
133.152, -0.24
133.153, -0.64
133.251, -0.49
133.251, -0.32
133.255, 0.28
133.349, 0.31
133.450, -0.53
133.452, -0.30
133.454, 0.25
133.549, 0.30
133.553, -0.66
133.555, -0.98
133.655, 0.33
133.749, 0.32
133.754, -0.86
133.755, -1.06
133.855, 0.28
133.949, 0.27
133.952, -0.42
133.955, -1.04
134.054, 0.27
134.149, 0.30
134.152, -0.27
134.152, -0.35
134.153, -0.78
134.155, -1.07
134.250, -0.51
134.252, -0.28
134.254, 0.27
134.349, 0.29
134.353, -0.80
134.355, -1.03
134.454, 0.26
134.549, 0.32
134.552, -0.46
134.555, -0.99
134.650, -0.50
134.652, -0.27
134.655, 0.30
134.749, 0.27
134.854, 0.26
134.949, 0.25
134.952, -0.41
134.953, -0.67
134.955, -0.96
134.956, -1.11
135.055, 0.29
135.149, 0.26
135.154, -0.77
135.155, -1.05
135.250, -0.51
135.252, -0.28
135.254, 0.25
135.349, 0.31
135.352, -0.40
135.354, -0.74
135.454, 0.25
135.549, 0.26
135.553, -0.78
135.556, -1.06
135.650, -0.53
135.652, -0.32
135.655, 0.28
135.749, 0.27
135.753, -0.79
135.755, -0.96
135.854, 0.27
135.949, 0.32
135.952, -0.25
135.952, -0.31
136.051, -0.52
136.051, -0.45
136.054, 0.24
136.149, 0.30
136.154, -0.99
136.155, -1.12
136.250, -0.57
136.252, -0.29
136.255, 0.31
136.349, 0.31
136.352, -0.37
136.354, -0.68
136.450, -0.52
136.452, -0.27
136.455, 0.30
136.549, 0.24
136.555, -1.06
136.555, -1.12
136.654, 0.24
136.749, 0.28
136.754, -0.76
136.754, -0.80
136.854, 0.27
136.949, 0.30
137.050, -0.53
137.052, -0.26
137.055, 0.28
137.149, 0.24
137.254, 0.22
137.349, 0.26
137.455, 0.29
137.549, 0.28
137.552, -0.41
137.555, -1.12
137.655, 0.30
137.749, 0.23
137.752, -0.40
137.754, -0.69
137.854, 0.26
137.949, 0.30
138.055, 0.28
138.149, 0.32
138.155, -0.99
138.155, -1.09
138.254, 0.26
138.349, 0.29
138.352, -0.44
138.354, -0.69
138.450, -0.54
138.452, -0.28
138.455, 0.29
138.549, 0.28
138.552, -0.23
138.552, -0.43
138.555, -0.94
138.556, -1.10
138.650, -0.52
138.652, -0.28
138.655, 0.28
138.749, 0.28
138.753, -0.74
138.755, -1.02
138.854, 0.25
138.949, 0.24
138.953, -0.54
138.956, -1.09
139.051, -0.46
139.051, -0.36
139.055, 0.28
139.149, 0.23
139.251, -0.47
139.251, -0.34
139.255, 0.28
139.349, 0.25
139.451, -0.46
139.451, -0.34
139.454, 0.27
139.549, 0.31
139.552, -0.31
139.553, -0.69
139.555, -1.01
139.556, -1.12
139.654, 0.24
139.749, 0.26
139.754, -0.72
139.755, -1.02
139.854, 0.24
139.949, 0.30
139.953, -0.61
139.956, -1.11
140.054, 0.27
140.149, 0.30
140.152, -0.43
140.153, -0.62
140.250, -0.50
140.252, -0.31
140.254, 0.27
140.349, 0.23
140.351, -0.21
140.354, -0.87
140.451, -0.51
140.451, -0.34
140.454, 0.22
140.549, 0.29
140.553, -0.56
140.553, -0.63
140.555, -0.99
140.555, -1.08
140.650, -0.49
140.652, -0.29
140.654, 0.24
140.749, 0.25
140.752, -0.46
140.753, -0.69
140.854, 0.27
140.949, 0.21
140.954, -0.78
140.955, -1.05
141.054, 0.27
141.149, 0.23
141.153, -0.57
141.155, -1.06
141.254, 0.24
141.349, 0.29
141.351, -0.21
141.352, -0.44
141.355, -1.03
141.355, -1.08
141.450, -0.63
141.452, -0.27
141.454, 0.22
141.549, 0.24
141.552, -0.22
141.552, -0.31
141.554, -0.87
141.554, -0.99
141.654, 0.25
141.749, 0.25
141.854, 0.25
141.949, 0.26
142.054, 0.21
142.149, 0.31
142.152, -0.40
142.154, -0.91
142.254, 0.21
142.349, 0.25
142.454, 0.27
142.549, 0.22
142.650, -0.50
142.652, -0.27
142.654, 0.24
142.749, 0.28
142.753, -0.69
142.755, -0.99
142.854, 0.28
142.949, 0.24
142.953, -0.68
142.955, -0.98
143.054, 0.24
143.149, 0.19
143.152, -0.44
143.153, -0.72
143.254, 0.23
143.349, 0.27
143.353, -0.49
143.353, -0.67
143.454, 0.26
143.549, 0.22
143.552, -0.47
143.553, -0.62
143.654, 0.24
143.749, 0.19
143.854, 0.25
143.949, 0.25
143.954, -0.72
143.954, -0.80
144.054, 0.24
144.149, 0.21
144.254, 0.25
144.349, 0.23
144.352, -0.31
144.352, -0.34
144.354, -0.81
144.355, -0.96
144.454, 0.20
144.549, 0.23
144.555, -0.99
144.555, -1.01
144.650, -0.54
144.652, -0.27
144.654, 0.22
144.749, 0.19
144.753, -0.57
144.755, -0.97
144.850, -0.52
144.852, -0.29
144.854, 0.24
144.949, 0.24
144.952, -0.42
144.956, -1.05
145.054, 0.15
145.149, 0.22
145.152, -0.26
145.152, -0.30
145.250, -0.49
145.252, -0.29
145.254, 0.19
145.349, 0.25
145.454, 0.25
145.549, 0.23
145.552, -0.43
145.553, -0.70
145.555, -0.97
145.555, -1.06
145.654, 0.22
145.749, 0.23
145.752, -0.25
145.752, -0.34
145.850, -0.51
145.852, -0.28
145.854, 0.23
145.949, 0.23
145.952, -0.40
145.956, -1.09
146.054, 0.19
146.149, 0.27
146.154, -0.69
146.155, -0.94
146.254, 0.17
146.349, 0.23
146.353, -0.63
146.354, -0.91
146.450, -0.49
146.452, -0.28
146.454, 0.26
146.549, 0.30
146.553, -0.60
146.555, -0.95
146.650, -0.46
146.652, -0.28
146.654, 0.22
146.749, 0.26
146.753, -0.53
146.754, -0.69
146.754, -0.91
146.755, -1.09
146.850, -0.52
146.852, -0.28
146.854, 0.23
146.949, 0.21
146.954, -0.92
146.954, -0.98
147.054, 0.28
147.149, 0.24
147.153, -0.66
147.155, -0.98
147.250, -0.52
147.252, -0.29
147.254, 0.17
147.349, 0.24
147.352, -0.45
147.353, -0.71
147.454, 0.23
147.549, 0.21
147.552, -0.31
147.555, -0.98
147.651, -0.43
147.651, -0.42
147.654, 0.24
147.749, 0.29
147.752, -0.38
147.753, -0.69
147.755, -0.96
147.755, -1.05
147.854, 0.17
147.949, 0.23
147.954, -0.90
147.954, -1.00
148.054, 0.23
148.149, 0.26
148.152, -0.32
148.153, -0.72
148.250, -0.53
148.252, -0.27
148.254, 0.19
148.349, 0.22
148.353, -0.47
148.355, -1.06
148.454, 0.22
148.549, 0.22
148.555, -0.99
148.555, -1.00
148.650, -0.51
148.652, -0.28
148.654, 0.25
148.749, 0.29
148.752, -0.22
148.752, -0.36
148.755, -1.01
148.756, -1.13
148.854, 0.20
148.949, 0.27
148.952, -0.42
148.953, -0.73
148.955, -0.98
148.955, -1.08
149.054, 0.24
149.149, 0.23
149.152, -0.24
149.152, -0.35
149.153, -0.83
149.155, -1.05
149.254, 0.23
149.349, 0.29
149.355, -0.97
149.355, -1.03
149.454, 0.22
149.549, 0.21
149.654, 0.20
149.749, 0.19
149.752, -0.44
149.753, -0.70
149.755, -0.97
149.756, -1.11
149.850, -0.58
149.852, -0.29
149.854, 0.24
149.949, 0.19
149.952, -0.48
149.954, -0.71
150.054, 0.18
150.149, 0.24
150.153, -0.61
150.156, -1.14
150.254, 0.15
150.349, 0.20
150.450, -0.50
150.452, -0.27
150.454, 0.24
150.549, 0.18
150.554, -0.90
150.555, -1.12
150.651, -0.54
150.652, -0.33
150.654, 0.20
150.749, 0.25
150.752, -0.25
150.754, -0.79
150.854, 0.27
150.949, 0.25
151.054, 0.20
151.149, 0.23
151.153, -0.79
151.155, -0.98
151.254, 0.24
151.349, 0.25
151.355, -1.01
151.356, -1.14
151.451, -0.51
151.451, -0.32
151.454, 0.22
151.549, 0.24
151.553, -0.67
151.554, -0.98
151.654, 0.21
151.749, 0.24
151.753, -0.48
151.753, -0.51
151.755, -0.88
151.756, -1.09
151.854, 0.19
151.949, 0.19
151.953, -0.45
151.953, -0.55
152.050, -0.56
152.052, -0.32
152.054, 0.24
152.149, 0.18
152.152, -0.23
152.152, -0.32
152.153, -0.58
152.155, -0.94
152.254, 0.23
152.349, 0.25
152.353, -0.64
152.355, -0.98
152.454, 0.19
152.549, 0.23
152.654, 0.18
152.749, 0.21
152.854, 0.22
152.949, 0.22
152.952, -0.27
152.952, -0.32
152.953, -0.69
152.956, -1.10
153.050, -0.51
153.052, -0.30
153.054, 0.25
153.150, 0.16
153.155, -0.90
153.156, -1.05
153.254, 0.22
153.349, 0.20
153.353, -0.68
153.355, -0.95
153.454, 0.20
153.549, 0.30
153.552, -0.37
153.554, -0.68
153.554, -0.88
153.556, -1.10
153.654, 0.17
153.749, 0.21
153.752, -0.42
153.754, -0.87
153.851, -0.50
153.851, -0.41
153.854, 0.20
153.949, 0.22
153.955, -0.89
153.956, -1.11
154.054, 0.20
154.150, 0.13
154.153, -0.73
154.155, -1.02
154.254, 0.21
154.349, 0.20
154.352, -0.43
154.356, -1.08
154.450, -0.51
154.452, -0.30
154.454, 0.21
154.550, 0.16
154.553, -0.65
154.555, -1.03
154.654, 0.18
154.749, 0.23
154.752, -0.38
154.754, -0.99
154.850, -0.50
154.852, -0.25
154.854, 0.18
154.949, 0.24
154.952, -0.39
154.954, -0.92
154.954, -0.97
154.956, -1.07
155.051, -0.40
155.051, -0.39
155.054, 0.18
155.149, 0.22
155.250, -0.58
155.252, -0.30
155.254, 0.17
155.349, 0.20
155.353, -0.43
155.355, -0.98
155.454, 0.20
155.549, 0.20
155.555, -0.99
155.555, -1.04
155.650, -0.52
155.652, -0.29
155.654, 0.18
155.749, 0.19
155.752, -0.41
155.753, -0.73
155.850, -0.51
155.852, -0.30
155.854, 0.23
155.949, 0.18
155.952, -0.39
155.956, -1.07
156.050, -0.51
156.052, -0.29
156.054, 0.21
156.150, 0.16
156.250, -0.58
156.252, -0.28
156.254, 0.20
156.349, 0.17
156.353, -0.61
156.355, -0.91
156.454, 0.19
156.550, 0.15
156.552, -0.27
156.555, -1.03
156.654, 0.18
156.749, 0.19
156.755, -0.91
156.756, -1.11
156.854, 0.16
156.949, 0.28
156.952, -0.43
156.954, -1.00
157.051, -0.49
157.052, -0.30
157.054, 0.18
157.149, 0.25
157.254, 0.17
157.349, 0.21
157.355, -0.96
157.356, -1.09
157.454, 0.17
157.549, 0.20
157.555, -0.98
157.556, -1.10
157.654, 0.17
157.749, 0.19
157.752, -0.40
157.753, -0.69
157.854, 0.20
157.950, 0.17
157.954, -0.71
157.954, -0.84
158.054, 0.23
158.149, 0.19
158.153, -0.49
158.156, -1.12
158.251, -0.52
158.251, -0.40
158.254, 0.21
158.349, 0.19
158.355, -1.02
158.356, -1.12
158.451, -0.54
158.452, -0.32
158.454, 0.22
158.549, 0.26
158.654, 0.14
158.749, 0.19
158.753, -0.74
158.755, -1.04
158.854, 0.15
158.949, 0.19
158.952, -0.39
158.956, -1.13
159.054, 0.16
159.149, 0.17
159.254, 0.22
159.350, 0.17
159.354, -0.70
159.355, -0.93
159.454, 0.18
159.550, 0.15
159.553, -0.61
159.553, -0.62
159.654, 0.14
159.749, 0.24
159.753, -0.73
159.754, -1.04
159.854, 0.15
159.949, 0.18
159.953, -0.42
159.955, -1.06
160.051, -0.49
160.051, -0.43
160.054, 0.16
160.150, 0.15
160.153, -0.58
160.155, -0.90
160.250, -0.53
160.252, -0.31
160.254, 0.22
160.349, 0.17
160.353, -0.73
160.355, -0.93
160.450, -0.54
160.452, -0.27
160.454, 0.17
160.549, 0.22
160.552, -0.30
160.553, -0.64
160.654, 0.16
160.750, 0.15
160.753, -0.70
160.756, -1.09
160.854, 0.18
160.950, 0.16
160.955, -0.99
160.955, -1.02
161.050, -0.51
161.052, -0.26
161.054, 0.18
161.150, 0.16
161.152, -0.43
161.154, -0.81
161.254, 0.13
161.349, 0.17
161.352, -0.38
161.354, -0.62
161.454, 0.15
161.549, 0.20
161.555, -0.94
161.556, -1.06
161.654, 0.20
161.750, 0.14
161.753, -0.61
161.754, -0.87
161.850, -0.54
161.852, -0.31
161.854, 0.20
161.950, 0.16
162.054, 0.14
162.149, 0.17
162.254, 0.20
162.350, 0.15
162.353, -0.70
162.355, -1.00
162.454, 0.12
162.549, 0.20
162.555, -1.00
162.555, -1.09
162.654, 0.16
162.749, 0.17
162.753, -0.44
162.755, -0.99
162.854, 0.20
162.950, 0.14
163.054, 0.16
163.150, 0.15
163.254, 0.13
163.349, 0.18
163.353, -0.75
163.354, -0.96
163.454, 0.19
163.549, 0.17
163.553, -0.68
163.556, -1.13
163.654, 0.13
163.749, 0.19
163.752, -0.36
163.754, -0.71
163.755, -0.96
163.755, -1.11
163.850, -0.52
163.852, -0.28
163.854, 0.12
163.950, 0.13
163.953, -0.57
163.955, -0.99
164.051, -0.50
164.051, -0.37
164.054, 0.19
164.150, 0.13
164.153, -0.67
164.155, -1.00
164.254, 0.12
164.350, 0.17
164.354, -0.90
164.354, -0.95
164.450, -0.51
164.452, -0.27
164.454, 0.16
164.550, 0.16
164.552, -0.38
164.553, -0.55
164.555, -0.96
164.556, -1.08
164.651, -0.56
164.652, -0.33
164.654, 0.17
164.750, 0.11
164.753, -0.68
164.755, -0.95
164.854, 0.18
164.949, 0.17
164.955, -0.95
164.956, -1.13
165.054, 0.14
165.150, 0.16
165.152, -0.41
165.153, -0.55
165.155, -0.99
165.155, -1.02
165.254, 0.12
165.349, 0.17
165.354, -0.75
165.355, -0.93
165.454, 0.19
165.550, 0.14
165.654, 0.18
165.749, 0.20
165.754, -0.73
165.754, -0.82
165.854, 0.14
165.949, 0.20
165.952, -0.38
165.954, -0.94
166.054, 0.15
166.150, 0.15
166.254, 0.22
166.350, 0.14
166.352, -0.40
166.355, -1.04
166.454, 0.15
166.549, 0.18
166.555, -1.04
166.556, -1.13
166.651, -0.50
166.652, -0.32
166.654, 0.15
166.749, 0.18
166.754, -0.75
166.754, -0.86
166.854, 0.16
166.950, 0.15
166.952, -0.37
166.953, -0.60
167.051, -0.53
167.051, -0.39
167.054, 0.17
167.150, 0.14
167.152, -0.39
167.153, -0.66
167.254, 0.19
167.349, 0.17
167.355, -0.85
167.356, -1.08
167.454, 0.16
167.550, 0.11
167.555, -0.95
167.555, -1.03
167.654, 0.13
167.750, 0.14
167.754, -0.76
167.755, -1.04
167.851, -0.50
167.851, -0.39
167.854, 0.15
167.949, 0.18
168.054, 0.20
168.150, 0.15
168.250, -0.57
168.252, -0.32
168.254, 0.20
168.350, 0.12
168.353, -0.64
168.355, -1.01
168.450, -0.51
168.452, -0.26
168.454, 0.19
168.550, 0.12
168.555, -1.01
168.556, -1.12
168.654, 0.16
168.750, 0.14
168.752, -0.40
168.753, -0.53
168.854, 0.15
168.950, 0.15
168.953, -0.65
168.955, -1.03
169.051, -0.52
169.051, -0.31
169.054, 0.13
169.149, 0.19
169.152, -0.37
169.153, -0.58
169.155, -0.87
169.156, -1.08
169.254, 0.16
169.350, 0.14
169.454, 0.15
169.550, 0.14
169.552, -0.38
169.555, -0.95
169.654, 0.16
169.750, 0.15
169.752, -0.37
169.753, -0.63
169.755, -0.99
169.756, -1.09
169.854, 0.19
169.950, 0.12
169.953, -0.75
169.954, -1.00
170.051, -0.49
170.051, -0.34
170.054, 0.19
170.150, 0.10
170.152, -0.38
170.153, -0.56
170.254, 0.14
170.350, 0.13
170.352, -0.39
170.353, -0.60
170.355, -0.95
170.355, -1.07
170.454, 0.13
170.550, 0.14
170.553, -0.63
170.556, -1.06
170.654, 0.12
170.750, 0.17
170.752, -0.38
170.755, -1.05
170.854, 0.15
170.950, 0.16
170.955, -0.98
170.955, -1.06
171.054, 0.16
171.150, 0.16
171.152, -0.35
171.156, -1.12
171.254, 0.18
171.350, 0.15
171.353, -0.67
171.355, -1.00
171.454, 0.19
171.550, 0.12
171.553, -0.41
171.553, -0.52
171.555, -0.93
171.555, -1.03
171.654, 0.14
171.750, 0.10
171.752, -0.40
171.756, -1.10
171.850, -0.59
171.852, -0.29
171.854, 0.12
171.950, 0.16
171.953, -0.50
171.953, -0.51
172.054, 0.11
172.150, 0.15
172.153, -0.77
172.155, -0.95
172.250, -0.47
172.252, -0.26
172.254, 0.15
172.349, 0.17
172.353, -0.61
172.356, -1.13
172.454, 0.19
172.550, 0.16
172.553, -0.65
172.554, -0.87
172.651, -0.52
172.651, -0.36
172.654, 0.20
172.750, 0.13
172.753, -0.66
172.754, -1.04
172.854, 0.15
172.950, 0.09
172.953, -0.46
172.954, -0.92
173.054, 0.11
173.150, 0.13
173.254, 0.13
173.350, 0.14
173.353, -0.42
173.354, -0.85
173.454, 0.18
173.550, 0.14
173.555, -1.04
173.555, -1.11
173.650, -0.49
173.652, -0.28
173.654, 0.13
173.750, 0.10
173.753, -0.57
173.756, -1.11
173.854, 0.16
173.950, 0.09
174.050, -0.54
174.052, -0.25
174.054, 0.17
174.149, 0.17
174.153, -0.61
174.156, -1.13
174.254, 0.18
174.350, 0.15
174.454, 0.21
174.550, 0.10
174.654, 0.12
174.750, 0.15
174.753, -0.47
174.753, -0.55
174.854, 0.16
174.950, 0.14
174.952, -0.39
174.954, -0.96
175.054, 0.19
175.150, 0.14
175.250, -0.51
175.252, -0.28
175.254, 0.13
175.350, 0.12
175.352, -0.41
175.353, -0.66
175.355, -1.03
175.356, -1.13
175.454, 0.16
175.550, 0.16
175.651, -0.46
175.651, -0.32
175.654, 0.19
175.750, 0.10
175.754, -0.85
175.756, -1.09
175.854, 0.12
175.950, 0.08
175.953, -0.47
175.953, -0.56
176.054, 0.14
176.150, 0.11
176.153, -0.68
176.156, -1.12
176.254, 0.15
176.350, 0.10
176.353, -0.79
176.355, -1.07
176.454, 0.12
176.550, 0.09
176.552, -0.40
176.553, -0.59
176.651, -0.49
176.651, -0.36
176.654, 0.12
176.750, 0.14
176.854, 0.15
176.950, 0.10
177.054, 0.14
177.150, 0.12
177.152, -0.39
177.153, -0.62
177.254, 0.18
177.350, 0.13
177.451, -0.46
177.451, -0.40
177.454, 0.15
177.550, 0.11
177.553, -0.66
177.556, -1.14
177.654, 0.14
177.750, 0.12
177.753, -0.67
177.755, -0.94
177.854, 0.19
177.950, 0.11
178.050, -0.51
178.052, -0.27
178.054, 0.12
178.150, 0.14
178.251, -0.48
178.252, -0.29
178.254, 0.15
178.350, 0.16
178.353, -0.62
178.356, -1.12
178.454, 0.14
178.550, 0.08
178.555, -0.95
178.556, -1.09
178.654, 0.15
178.750, 0.12
178.754, -0.79
178.755, -1.12
178.854, 0.15
178.950, 0.11
178.955, -0.88
178.956, -1.10
179.054, 0.12
179.150, 0.12
179.152, -0.38
179.154, -0.87
179.155, -1.01
179.155, -1.07
179.254, 0.11
179.350, 0.10
179.353, -0.62
179.355, -1.06
179.454, 0.11
179.550, 0.11
179.552, -0.39
179.554, -0.62
179.654, 0.18
179.750, 0.10
179.854, 0.12
179.950, 0.11
179.952, -0.40
179.953, -0.65
180.054, 0.15
180.150, 0.14
180.155, -1.07
180.155, -1.13
180.254, 0.11
180.350, 0.06
180.454, 0.12
180.550, 0.08
180.553, -0.43
180.554, -0.66
180.554, -0.82
180.556, -1.12
180.654, 0.12
180.750, 0.06
180.752, -0.38
180.753, -0.57
180.854, 0.17
180.950, 0.12
181.054, 0.12
181.150, 0.13
181.152, -0.41
181.153, -0.55
181.155, -0.92
181.156, -1.12
181.254, 0.14
181.350, 0.03
181.352, -0.38
181.355, -0.95
181.454, 0.11
181.550, 0.10
181.654, 0.12
181.750, 0.07
181.854, 0.14
181.950, 0.07
181.952, -0.40
181.956, -1.08
182.054, 0.12
182.150, 0.11
182.152, -0.38
182.153, -0.60
182.155, -0.99
182.156, -1.11
182.250, -0.52
182.252, -0.27
182.254, 0.13
182.350, 0.14
182.354, -0.74
182.354, -0.89
182.449, -0.76
182.451, -0.58
182.454, 0.09
182.550, 0.06
182.552, -0.40
182.553, -0.57
182.654, 0.16
182.750, 0.05
182.754, -0.67
182.754, -0.91
182.850, -0.52
182.852, -0.28
182.854, 0.19
182.950, 0.06
183.054, 0.12
183.150, 0.10
183.153, -0.63
183.154, -0.85
183.250, -0.47
183.252, -0.27
183.254, 0.13
183.350, 0.08
183.353, -0.67
183.355, -0.96
183.454, 0.12
183.550, 0.13
183.555, -0.90
183.556, -1.09
183.651, -0.49
183.651, -0.34
183.654, 0.13
183.750, 0.10
183.752, -0.36
183.754, -0.78
183.854, 0.14
183.950, 0.11
183.953, -0.56
183.955, -0.92
184.054, 0.12
184.150, 0.08
184.249, -0.76
184.251, -0.61
184.254, 0.14
184.350, 0.09
184.352, -0.37
184.355, -0.90
184.451, -0.50
184.451, -0.34
184.454, 0.15
184.550, 0.11
184.654, 0.11
184.750, 0.07
184.753, -0.59
184.755, -0.94
184.854, 0.18
184.950, 0.07
184.952, -0.38
184.954, -0.77
185.050, -0.54
185.052, -0.32
185.054, 0.12
185.150, 0.12
185.152, -0.40
185.154, -0.93
185.250, -0.60
185.252, -0.27
185.254, 0.10
185.350, 0.12
185.355, -0.96
185.355, -1.08
185.454, 0.11
185.550, 0.06
185.654, 0.11
185.750, 0.03
185.753, -0.67
185.754, -0.95
185.851, -0.53
185.851, -0.35
185.854, 0.16
185.950, 0.03
185.953, -0.48
185.953, -0.49
186.054, 0.11
186.150, 0.05
186.152, -0.40
186.154, -0.93
186.254, 0.13
186.350, 0.08
186.354, -0.61
186.355, -0.92
186.454, 0.12
186.550, 0.05
186.654, 0.12
186.750, 0.05
186.753, -0.66
186.754, -0.90
186.854, 0.11
186.950, 0.11
186.952, -0.37
186.954, -0.66
186.955, -0.93
186.956, -1.11
187.054, 0.10
187.150, 0.08
187.152, -0.41
187.153, -0.62
187.254, 0.14
187.350, 0.02
187.353, -0.69
187.354, -1.00
187.450, -0.61
187.452, -0.30
187.454, 0.17
187.550, 0.07
187.654, 0.11
187.750, 0.10
187.754, -0.70
187.754, -0.90
187.854, 0.13
187.950, 0.05
187.954, -0.68
187.954, -0.80
188.054, 0.18
188.150, 0.12
188.254, 0.10
188.350, 0.12
188.454, 0.13
188.550, 0.02
188.554, -0.78
188.556, -1.06
188.654, 0.12
188.750, 0.12
188.752, -0.36
188.754, -0.88
188.854, 0.09
188.950, 0.12
188.953, -0.58
188.956, -1.10
189.051, -0.47
189.051, -0.37
189.054, 0.10
189.150, 0.01
189.154, -0.64
189.155, -0.92
189.254, 0.15
189.350, 0.03
189.454, 0.11
189.550, 0.12
189.552, -0.39
189.553, -0.60
189.651, -0.53
189.652, -0.31
189.654, 0.11
189.750, 0.11
189.755, -0.92
189.756, -1.06
189.850, -0.53
189.852, -0.24
189.854, 0.13
189.950, 0.09
189.952, -0.40
189.953, -0.67
190.054, 0.09
190.150, 0.13
190.154, -0.70
190.156, -1.09
190.251, -0.39
190.251, -0.36
190.254, 0.11
190.350, 0.11
190.454, 0.12
190.550, 0.10
190.553, -0.64
190.555, -0.94
190.654, 0.15
190.750, 0.13
190.753, -0.50
190.755, -1.02
190.854, 0.11
190.950, 0.13
190.954, -0.72
190.955, -1.01
191.054, 0.10
191.150, 0.11
191.153, -0.66
191.156, -1.09
191.254, 0.13
191.350, 0.10
191.353, -0.44
191.353, -0.60
191.454, 0.12
191.550, 0.11
191.552, -0.39
191.554, -0.69
191.555, -0.93
191.555, -1.12
191.654, 0.14
191.750, 0.12
191.752, -0.36
191.755, -0.97
191.854, 0.09
191.950, 0.07
191.952, -0.36
191.954, -0.70
191.954, -0.71
191.955, -1.02
192.051, -0.49
192.051, -0.37
192.054, 0.13
192.150, 0.06
192.154, -0.70
192.154, -0.71
192.251, -0.51
192.252, -0.28
192.254, 0.13
192.350, 0.11
192.353, -0.61
192.355, -0.97
192.451, -0.42
192.451, -0.35
192.454, 0.09
192.550, 0.13
192.553, -0.71
192.554, -0.95
192.654, 0.14
192.750, 0.10
192.753, -0.50
192.753, -0.68
192.754, -0.88
192.756, -1.08
192.854, 0.11
192.950, 0.10
192.955, -0.99
192.956, -1.10
193.054, 0.12
193.150, 0.10
193.154, -0.67
193.155, -0.91
193.254, 0.19
193.350, 0.09
193.352, -0.36
193.353, -0.67
193.451, -0.50
193.452, -0.31
193.454, 0.11
193.550, 0.15
193.553, -0.46
193.553, -0.53
193.555, -0.91
193.556, -1.08
193.654, 0.09
193.750, 0.12
193.854, 0.10
193.950, 0.11
193.952, -0.35
193.954, -0.75
194.054, 0.09
194.150, 0.09
194.254, 0.10
194.350, 0.06
194.352, -0.45
194.355, -0.94
194.454, 0.14
194.550, 0.13
194.555, -0.94
194.556, -1.09
194.653, 0.04
194.750, 0.10
194.752, -0.36
194.753, -0.54
194.755, -0.97
194.756, -1.09
194.851, -0.52
194.852, -0.29
194.853, 0.06
194.950, 0.13
194.955, -0.94
194.956, -1.12
195.054, 0.16
195.150, 0.13
195.153, -0.53
195.155, -0.92
195.250, -0.46
195.252, -0.27
195.253, 0.04
195.350, 0.14
195.352, -0.38
195.353, -0.61
195.451, -0.43
195.451, -0.33
195.454, 0.10
195.550, 0.12
195.651, -0.44
195.651, -0.32
195.654, 0.10
195.750, 0.14
195.752, -0.35
195.754, -0.62
195.755, -0.92
195.756, -1.10
195.853, 0.03
195.950, 0.12
196.053, 0.07
196.150, 0.09
196.153, -0.75
196.155, -1.07
196.254, 0.09
196.350, 0.11
196.353, -0.63
196.354, -0.91
196.451, -0.53
196.452, -0.26
196.454, 0.11
196.550, 0.09
196.552, -0.41
196.555, -1.13
196.651, -0.49
196.651, -0.31
196.654, 0.10
196.750, 0.07
196.752, -0.36
196.753, -0.58
196.854, 0.09
196.950, 0.06
196.954, -0.67
196.955, -0.91
197.053, 0.04
197.150, 0.10
197.152, -0.37
197.156, -1.09
197.254, 0.11
197.350, 0.10
197.353, -0.53
197.353, -0.62
197.453, 0.01
197.550, 0.09
197.654, 0.18
197.750, 0.13
197.854, 0.10
197.950, 0.06
197.953, -0.44
197.953, -0.53
197.955, -0.93
197.955, -1.06
198.054, 0.13
198.150, 0.10
198.152, -0.35
198.153, -0.60
198.254, 0.10
198.350, 0.13
198.355, -1.00
198.355, -1.08
198.453, -0.02
198.550, 0.09
198.552, -0.46
198.553, -0.63
198.654, 0.12
198.750, 0.09
198.851, -0.48
198.851, -0.31
198.853, 0.03
198.950, 0.10
199.054, 0.12
199.150, 0.09
199.154, -0.65
199.156, -1.08
199.253, 0.03
199.350, 0.06
199.352, -0.43
199.353, -0.63
199.453, 0.04
199.550, 0.08
199.552, -0.34
199.554, -0.65
199.653, -0.02
199.750, 0.11
199.752, -0.39
199.753, -0.77
199.853, 0.06
199.950, 0.13
199.955, -1.03
199.956, -1.13
200.054, 0.14
200.150, 0.05
200.153, -0.61
200.156, -1.12
200.254, 0.11
200.350, 0.07
200.355, -0.89
200.356, -1.09
200.454, 0.11
200.550, 0.09
200.554, -0.72
200.554, -0.98
200.654, 0.09
200.750, 0.07
200.853, 0.06
200.950, 0.10
200.955, -0.96
200.955, -1.00
201.050, -0.49
201.052, -0.29
201.054, 0.12
201.150, 0.14
201.153, -0.48
201.154, -0.62
201.154, -0.74
201.156, -1.11
201.251, -0.55
201.252, -0.31
201.254, 0.13
201.350, 0.13
201.355, -0.98
201.356, -1.10
201.453, 0.08
201.550, 0.10
201.653, 0.07
201.750, 0.10
201.752, -0.45
201.753, -0.69
201.851, -0.46
201.851, -0.31
201.854, 0.13
201.950, 0.09
201.953, -0.67
201.955, -0.91
202.054, 0.10
202.150, 0.05
202.152, -0.38
202.156, -1.07
202.251, -0.45
202.251, -0.35
202.254, 0.08
202.350, 0.06
202.355, -1.09
202.355, -1.12
202.451, -0.50
202.452, -0.28
202.453, 0.07
202.550, 0.05
202.653, 0.08
202.750, 0.08
202.753, -0.51
202.755, -1.00
202.851, -0.46
202.851, -0.34
202.853, 0.04
202.950, 0.04
202.954, -0.62
202.954, -0.79
203.051, -0.53
203.052, -0.30
203.054, 0.11
203.150, 0.10
203.153, -0.42
203.153, -0.60
203.155, -0.98
203.156, -1.12
203.254, 0.11
203.350, 0.09
203.353, -0.48
203.353, -0.75
203.451, -0.51
203.452, -0.32
203.453, 0.07
203.550, 0.06
203.653, 0.08
203.750, 0.06
203.752, -0.44
203.753, -0.58
203.854, 0.10
203.950, 0.10
204.053, -0.01
204.150, 0.12
204.254, 0.16
204.350, 0.12
204.355, -1.05
204.355, -1.12
204.454, 0.09
204.550, 0.11
204.552, -0.39
204.553, -0.66
204.555, -1.01
204.555, -1.09
204.653, 0.05
204.750, 0.12
204.752, -0.39
204.753, -0.58
204.851, -0.49
204.852, -0.28
204.853, 0.08
204.950, 0.13
204.954, -0.77
204.954, -0.99
205.051, -0.45
205.051, -0.31
205.053, 0.04
205.150, 0.09
205.154, -0.76
205.154, -0.97
205.251, -0.48
205.252, -0.31
205.254, 0.11
205.350, 0.09
205.352, -0.38
205.354, -0.78
205.454, 0.09
205.550, 0.09
205.553, -0.43
205.555, -1.09
205.653, 0.08
205.750, 0.10
205.755, -0.88
205.756, -1.09
205.854, 0.12
205.950, 0.07
206.054, 0.15
206.150, 0.09
206.253, 0.06
206.350, 0.08
206.355, -0.93
206.356, -1.07
206.453, 0.04
206.550, 0.11
206.553, -0.45
206.555, -1.03
206.651, -0.48
206.652, -0.29
206.653, 0.06
206.750, 0.08
206.754, -0.93
206.756, -1.10
206.853, 0.08
206.950, 0.09
206.955, -1.03
206.956, -1.14
207.051, -0.46
207.051, -0.34
207.054, 0.14
207.150, 0.08
207.155, -0.96
207.156, -1.11
207.251, -0.39
207.251, -0.36
207.254, 0.14
207.350, 0.05
207.352, -0.38
207.354, -0.87
207.454, 0.10
207.550, 0.07
207.554, -0.79
207.554, -0.96
207.653, 0.07
207.750, 0.07
207.853, 0.08
207.950, 0.07
208.051, -0.43
208.051, -0.36
208.054, 0.08
208.150, 0.09
208.251, -0.47
208.251, -0.31
208.254, 0.09
208.350, 0.12
208.352, -0.43
208.355, -1.04
208.454, 0.09
208.550, 0.09
208.552, -0.40
208.555, -1.00
208.654, 0.08
208.750, 0.12
208.755, -0.90
208.756, -1.10
208.853, 0.06
208.950, 0.06
208.954, -0.67
208.954, -0.71
209.053, 0.07
209.150, 0.09
209.154, -0.83
209.156, -1.13
209.253, 0.06
209.350, 0.05
209.354, -0.65
209.354, -0.73
209.454, 0.10
209.550, 0.13
209.554, -0.75
209.556, -1.10
209.654, 0.13
209.750, 0.05
209.754, -0.72
209.754, -0.86
209.853, 0.08
209.950, 0.05
209.952, -0.44
209.953, -0.65
210.051, -0.48
210.052, -0.29
210.053, 0.06
210.150, 0.10
210.153, -0.58
210.155, -0.96
210.251, -0.51
210.252, -0.29
210.254, 0.13
210.350, 0.12
210.353, -0.66
210.356, -1.07
210.451, -0.48
210.451, -0.30
210.454, 0.12
210.550, 0.06
210.554, -0.84
210.554, -0.99
210.654, 0.08
210.750, 0.06
210.752, -0.38
210.755, -0.93
210.854, 0.08
210.950, 0.12
210.952, -0.38
210.954, -0.85
210.954, -0.85
210.956, -1.13
211.054, 0.08
211.150, 0.09
211.152, -0.40
211.153, -0.67
211.155, -0.96
211.156, -1.07
211.253, 0.06
211.350, 0.05
211.354, -0.76
211.354, -0.91
211.454, 0.09
211.550, 0.10
211.654, 0.11
211.750, 0.10
211.753, -0.68
211.755, -1.04
211.854, 0.12
211.950, 0.11
211.954, -0.87
211.956, -1.14
212.054, 0.08
212.150, 0.11
212.153, -0.70
212.154, -1.02
212.253, 0.08
212.350, 0.06
212.453, 0.06
212.550, 0.07
212.552, -0.41
212.553, -0.64
212.555, -0.98
212.555, -1.03
212.651, -0.48
212.651, -0.32
212.654, 0.09
212.750, 0.05
212.755, -0.97
212.756, -1.08
212.853, 0.07
212.950, 0.13
213.054, 0.11
213.150, 0.10
213.153, -0.47
213.154, -0.77
213.253, 0.07
213.350, 0.03
213.352, -0.40
213.355, -0.96
213.451, -0.46
213.452, -0.29
213.454, 0.10
213.550, 0.06
213.554, -0.91
213.555, -1.04
213.653, 0.05
213.750, 0.08
213.752, -0.40
213.753, -0.69
213.755, -1.04
213.755, -1.10
213.853, 0.07
