time (sec), current (uA)
0.063, -0.19
0.140, 6.32
0.263, 0.73
0.340, -3.83
0.463, -2.02
0.540, -2.86
0.663, -1.00
0.740, 5.13
0.863, 1.35
0.940, 2.61
1.063, -0.59
1.140, 0.56
1.263, -3.34
1.340, 0.16
1.463, -0.85
1.540, 2.39
1.663, 2.63
1.740, 4.21
1.863, -0.03
1.940, -2.35
2.063, 3.04
2.140, 2.45
2.263, 4.22
2.340, -0.97
2.463, -2.99
2.540, 0.91
2.663, -1.17
2.740, 0.76
2.863, -2.66
2.940, 3.17
3.063, 2.01
3.140, 1.34
3.263, -3.26
3.340, -2.50
3.463, 71.31
3.540, 58.72
3.663, 65.11
3.740, 64.07
3.863, 65.85
3.940, 64.66
4.063, 58.24
4.140, 57.46
4.263, 66.50
4.340, 61.85
4.463, 57.06
4.540, 57.96
4.663, 58.27
4.740, 61.67
4.863, 62.48
4.940, 62.18
5.063, 61.24
5.140, 56.14
5.263, 62.94
5.340, 61.53
5.463, 57.93
5.540, 61.40
5.663, 63.20
5.740, 61.90
5.863, 57.14
5.940, 59.59
6.063, 56.83
6.140, 58.99
6.263, 63.57
6.340, 61.81
6.463, 60.47
6.540, 62.62
6.663, 65.88
6.740, 60.01
6.863, 64.18
6.940, 59.10
7.063, 61.76
7.140, 55.11
7.263, 65.44
7.340, 60.92
7.463, 60.57
7.540, 60.57
7.663, 61.41
7.740, 66.58
7.863, 66.23
7.940, 62.66
8.063, 66.04
8.140, 67.77
8.263, 59.84
8.340, 62.23
8.463, 64.96
8.540, 67.29
8.663, 65.02
8.740, 62.97
8.863, 62.81
8.940, 62.84
9.063, 63.98
9.140, 61.11
9.263, 61.51
9.340, 61.99
9.463, 62.75
9.540, 70.90
9.663, 67.12
9.740, 64.72
9.863, 63.08
9.940, 65.10
10.063, 66.04
10.140, 65.53
10.263, 68.96
10.340, 64.45
10.463, 63.91
10.540, 67.22
10.663, 64.23
10.740, 63.12
10.863, 64.79
10.940, 62.50
11.063, 65.55
11.140, 63.22
11.263, 69.17
11.340, 69.16
11.463, 67.43
11.540, 64.70
11.663, 65.51
11.740, 66.73
11.863, 64.04
11.940, 67.25
12.063, 67.02
12.140, 63.16
12.263, 68.43
12.340, 66.06
12.463, 70.15
12.540, 60.92
12.663, 64.84
12.740, 63.28
12.863, 66.39
12.940, 62.69
13.063, 71.01
13.140, 64.93
13.263, 62.48
13.340, 68.27
13.463, 69.07
13.540, 66.03
13.663, 66.18
13.740, 64.61
13.863, 68.23
13.940, 68.25
14.063, 67.93
14.140, 69.62
14.263, 70.36
14.340, 66.17
14.463, 66.52
14.540, 64.63
14.663, 65.32
14.740, 66.98
14.863, 65.82
14.940, 67.81
15.063, 71.25
15.140, 63.37
15.263, 65.91
15.340, 66.58
15.463, 70.16
15.540, 65.49
15.663, 68.90
15.740, 71.28
15.863, 68.08
15.940, 68.78
16.063, 73.02
16.140, 71.74
16.263, 67.12
16.340, 66.85
16.463, 72.60
16.540, 68.02
16.663, 72.73
16.740, 66.02
16.863, 71.70
16.940, 68.12
17.063, 69.71
17.140, 67.54
17.263, 67.83
17.340, 67.40
17.463, 70.09
17.540, 67.83
17.663, 68.95
17.740, 69.62
17.863, 68.12
17.940, 67.14
18.063, 67.82
18.140, 67.26
18.263, 70.29
18.340, 72.26
18.463, 69.60
18.540, 67.51
18.663, 72.89
18.740, 70.89
18.863, 72.22
18.940, 67.84
19.063, 67.79
19.140, 67.79
19.263, 79.33
19.340, 71.38
19.463, 72.30
19.540, 74.75
19.663, 67.73
19.740, 71.01
19.863, 71.35
19.940, 71.28
20.063, 76.14
20.140, 76.69
20.263, 79.27
20.340, 67.63
20.463, 80.00
20.540, 66.10
20.663, 79.37
20.740, 66.78
20.863, 68.23
20.940, 75.02
21.063, 70.79
21.140, 72.25
21.263, 77.19
21.340, 69.19
21.463, 76.46
21.540, 74.87
21.663, 73.13
21.740, 75.90
21.863, 72.71
21.940, 75.37
22.063, 73.76
22.140, 67.64
22.263, 70.98
22.340, 70.47
22.463, 77.21
22.540, 68.99
22.663, 77.71
22.740, 66.27
22.863, 75.69
22.940, 71.48
23.063, 77.21
23.140, 76.52
23.263, 70.81
23.340, 73.88
23.463, 72.00
23.540, 73.95
23.663, 74.08
23.740, 74.94
23.863, 69.35
23.940, 74.23
24.063, 78.01
24.140, 69.12
24.263, 75.50
24.340, 75.69
24.463, 75.60
24.540, 70.74
24.663, 67.59
24.740, 78.68
24.863, 75.59
24.940, 67.12
25.063, 72.47
25.140, 70.23
25.263, 73.83
25.340, 70.19
25.463, 73.31
25.540, 72.65
25.663, 73.61
25.740, 69.94
25.863, 71.16
25.940, 71.45
26.063, 71.87
26.140, 75.99
26.263, 70.51
26.340, 76.22
26.463, 69.58
26.540, 76.41
26.663, 72.97
26.740, 69.22
26.863, 72.03
26.940, 74.46
27.063, 76.24
27.140, 68.53
27.263, 77.28
27.340, 71.21
27.463, 74.35
27.540, 78.00
27.663, 74.58
27.740, 76.01
27.863, 76.62
27.940, 71.12
28.063, 77.31
28.140, 74.77
28.263, 73.19
28.340, 75.32
28.463, 77.03
28.540, 70.53
28.663, 76.75
28.740, 73.62
28.863, 76.53
28.940, 75.76
29.063, 71.72
29.140, 80.20
29.263, 78.28
29.340, 77.48
29.463, 77.97
29.540, 74.54
29.663, 72.10
29.740, 78.00
29.863, 72.49
29.940, 75.42
30.063, 75.08
30.140, 70.78
30.263, 74.45
30.340, 74.22
30.463, 73.87
30.540, 75.31
30.663, 76.66
30.740, 81.14
30.863, 71.44
30.940, 78.61
31.063, 74.37
31.140, 74.96
31.263, 72.25
31.340, 73.53
31.463, 71.91
31.540, 81.28
31.663, 78.13
31.740, 74.06
31.863, 79.42
31.940, 74.36
32.063, 77.12
32.140, 77.98
32.263, 72.93
32.340, 79.14
32.463, 75.60
32.540, 78.33
32.663, 76.89
32.740, 78.54
32.863, 78.19
32.940, 74.12
33.063, 73.45
33.140, 77.42
33.263, 74.38
33.340, 73.64
33.463, 78.62
33.540, 81.64
33.663, 81.57
33.740, 75.57
33.863, 73.70
33.940, 73.56
34.063, 77.18
34.140, 73.45
34.263, 72.51
34.340, 78.19
34.463, 72.26
34.540, 76.01
34.663, 75.60
34.740, 73.50
34.863, 77.71
34.940, 76.33
35.063, 72.71
35.140, 74.98
35.263, 78.36
35.340, 80.22
35.463, 78.71
35.540, 74.47
35.663, 78.10
35.740, 76.64
35.863, 78.99
35.940, 77.06
36.063, 73.78
36.140, 74.38
36.263, 71.99
36.340, 76.61
36.463, 78.04
36.540, 78.19
36.663, 74.35
36.740, 73.54
36.863, 79.96
36.940, 72.26
37.063, 81.69
37.140, 74.67
37.263, 79.57
37.340, 74.76
37.463, 76.73
37.540, 73.36
37.663, 80.04
37.740, 81.01
37.863, 77.58
37.940, 78.97
38.063, 75.15
38.140, 77.33
38.263, 76.38
38.340, 78.79
38.463, 79.75
38.540, 82.63
38.663, 79.77
38.740, 80.00
38.863, 77.73
38.940, 75.60
39.063, 74.59
39.140, 72.13
39.263, 76.90
39.340, 77.24
39.463, 80.21
39.540, 85.44
39.663, 79.67
39.740, 82.21
39.863, 79.95
39.940, 81.51
40.063, 81.22
40.140, 83.35
40.263, 80.25
40.340, 87.58
40.463, 77.49
40.540, 81.67
40.663, 73.47
40.740, 75.69
40.863, 73.89
40.940, 77.50
41.063, 77.42
41.140, 77.92
41.263, 74.48
41.340, 75.69
41.463, 75.81
41.540, 77.76
41.663, 78.86
41.740, 78.37
41.863, 76.13
41.940, 75.70
42.063, 75.38
42.140, 79.26
42.263, 80.43
42.340, 75.87
42.463, 80.97
42.540, 83.08
42.663, 75.69
42.740, 77.67
42.863, 74.47
42.940, 75.88
43.063, 81.52
43.140, 74.38
43.263, 76.46
43.340, 77.44
43.463, 80.74
43.540, 85.74
43.663, 79.91
43.740, 84.27
43.863, 77.46
43.940, 78.39
44.063, 78.77
44.140, 83.80
44.263, 81.43
44.340, 73.65
44.463, 74.07
44.540, 74.52
44.663, 78.76
44.740, 76.99
44.863, 81.94
44.940, 78.08
45.063, 80.86
45.140, 78.02
45.263, 78.66
45.340, 76.13
45.463, 84.47
45.540, 77.54
45.663, 79.76
45.740, 77.97
45.863, 77.38
45.940, 83.19
46.063, 73.83
46.140, 83.52
46.263, 81.65
46.340, 78.48
46.463, 83.60
46.540, 78.10
46.663, 78.79
46.740, 82.60
46.863, 80.06
46.940, 74.60
47.063, 77.91
47.140, 78.58
47.263, 80.94
47.340, 76.20
47.463, 82.36
47.540, 76.84
47.663, 84.35
47.740, 77.64
47.863, 77.32
47.940, 81.36
48.063, 83.63
48.140, 81.59
48.263, 76.30
48.340, 77.90
48.463, 80.29
48.540, 81.32
48.663, 82.76
48.740, 75.83
48.863, 78.49
48.940, 79.10
49.063, 79.91
49.140, 81.35
49.263, 82.34
49.340, 80.29
49.463, 74.83
49.540, 80.09
49.663, 85.70
49.740, 81.53
49.863, 81.95
49.940, 77.92
50.063, 82.43
50.140, 77.43
50.263, 78.45
50.340, 75.12
50.463, 77.53
50.540, 76.90
50.663, 79.07
50.740, 78.34
50.863, 81.45
50.940, 76.80
51.063, 85.20
51.140, 81.76
51.263, 79.64
51.340, 79.32
51.463, 79.74
51.540, 86.45
51.663, 83.20
51.740, 78.66
51.863, 78.49
51.940, 82.45
52.063, 75.58
52.140, 74.96
52.263, 83.95
52.340, 79.59
52.463, 82.68
52.540, 79.66
52.663, 81.48
52.740, 82.58
52.863, 77.02
52.940, 77.70
53.063, 83.42
53.140, 85.82
53.263, 77.87
53.340, 77.43
53.463, 81.14
53.540, 82.42
53.663, 82.39
53.740, 78.21
53.863, 76.12
53.940, 80.88
54.063, 78.55
54.140, 80.26
54.263, 79.33
54.340, 86.34
54.463, 76.55
54.540, 79.80
54.663, 75.79
54.740, 83.37
54.863, 83.40
54.940, 83.83
55.063, 82.58
55.140, 85.31
55.263, 78.44
55.340, 80.42
55.463, 80.24
55.540, 82.34
55.663, 79.02
55.740, 76.81
55.863, 84.26
55.940, 80.37
56.063, 77.47
56.140, 79.95
56.263, 79.61
56.340, 83.79
56.463, 83.30
56.540, 81.99
56.663, 81.64
56.740, 80.79
56.863, 82.14
56.940, 79.35
57.063, 77.14
57.140, 82.72
57.263, 80.96
57.340, 84.92
57.463, 76.32
57.540, 81.34
57.663, 78.08
57.740, 82.21
57.863, 76.70
57.940, 78.89
58.063, 84.61
58.140, 78.35
58.263, 82.37
58.340, 86.93
58.463, 78.15
58.540, 82.10
58.663, 84.26
58.740, 77.37
58.863, 78.84
58.940, 85.08
59.063, 81.08
59.140, 88.23
59.263, 83.00
59.340, 85.80
59.463, 82.11
59.540, 85.35
59.663, 87.39
59.740, 79.72
59.863, 77.42
59.940, 82.01
60.063, 83.88
60.140, 82.34
60.263, 80.47
60.340, 78.33
60.463, 79.96
60.540, 81.94
60.663, 77.74
60.740, 86.47
60.863, 77.65
60.940, 89.33
61.063, 78.60
61.140, 83.95
61.263, 81.69
61.340, 83.87
61.463, 83.99
61.540, 80.58
61.663, 84.73
61.740, 80.97
61.863, 84.05
61.940, 82.83
62.063, 84.22
62.140, 79.14
62.263, 81.05
62.340, 87.93
62.463, 84.99
62.540, 82.10
62.663, 81.43
62.740, 83.79
62.863, 85.83
62.940, 82.53
63.063, 81.12
63.140, 87.68
63.263, 81.98
63.340, 84.33
63.463, 80.12
63.540, 87.14
63.663, 84.92
63.740, 84.98
63.863, 81.65
63.940, 79.78
64.063, 82.22
64.140, 82.71
64.263, 80.58
64.340, 80.39
64.463, 82.27
64.540, 86.07
64.663, 83.30
64.740, 77.56
64.863, 82.32
64.940, 79.08
65.063, 78.92
65.140, 82.00
65.263, 83.49
65.340, 81.81
65.463, 82.21
65.540, 81.85
65.663, 82.20
65.740, 88.20
65.863, 81.51
65.940, 82.96
66.063, 83.20
66.140, 87.05
66.263, 85.74
66.340, 79.77
66.463, 85.10
66.540, 85.27
66.663, 85.50
66.740, 84.77
66.863, 81.23
66.940, 85.14
67.063, 79.84
67.140, 84.06
67.263, 83.93
67.340, 88.09
67.463, 84.29
67.540, 81.19
67.663, 87.77
67.740, 83.22
67.863, 87.69
67.940, 81.05
68.063, 81.21
68.140, 82.52
68.263, 84.58
68.340, 86.35
68.463, 90.29
68.540, 80.14
68.663, 83.27
68.740, 79.48
68.863, 84.19
68.940, 82.10
69.063, 82.55
69.140, 84.65
69.263, 87.70
69.340, 83.94
69.463, 88.97
69.540, 83.18
69.663, 84.69
69.740, 83.57
69.863, 81.61
69.940, 86.83
70.063, 89.95
70.140, 78.15
70.263, 93.50
70.340, 83.62
70.463, 90.51
70.540, 81.44
70.663, 81.13
70.740, 87.16
70.863, 83.68
70.940, 84.75
71.063, 90.18
71.140, 85.80
71.263, 83.17
71.340, 84.38
71.463, 86.47
71.540, 84.39
71.663, 82.56
71.740, 85.12
71.863, 82.15
71.940, 88.15
72.063, 87.44
72.140, 82.38
72.263, 81.15
72.340, 85.82
72.463, 85.54
72.540, 80.48
72.663, 84.93
72.740, 84.53
72.863, 91.67
72.940, 79.94
73.063, 87.51
73.140, 81.99
73.263, 89.41
73.340, 79.24
73.463, 82.57
73.540, 84.62
73.663, 82.19
73.740, 85.77
73.863, 80.54
73.940, 81.42
74.063, 81.57
74.140, 85.05
74.263, 85.03
74.340, 85.46
74.463, 86.27
74.540, 78.67
74.663, 80.48
74.740, 85.06
74.863, 82.42
74.940, 87.86
75.063, 85.13
75.140, 78.39
75.263, 88.56
75.340, 87.34
75.463, 81.30
75.540, 85.39
75.663, 81.81
75.740, 87.67
75.863, 87.90
75.940, 81.58
76.063, 87.29
76.140, 82.94
76.263, 86.90
76.340, 85.46
76.463, 87.39
76.540, 86.31
76.663, 86.56
76.740, 82.65
76.863, 81.62
76.940, 89.17
77.063, 83.18
77.140, 83.44
77.263, 84.34
77.340, 83.52
77.463, 86.83
77.540, 86.51
77.663, 80.77
77.740, 84.80
77.863, 87.93
77.940, 86.33
78.063, 82.84
78.140, 86.24
78.263, 80.31
78.340, 85.35
78.463, 83.32
78.540, 83.01
78.663, 80.65
78.740, 84.85
78.863, 86.60
78.940, 86.05
79.063, 82.93
79.140, 87.61
79.263, 87.70
79.340, 86.65
79.463, 85.71
79.540, 83.17
79.663, 84.85
79.740, 85.59
79.863, 82.33
79.940, 82.57
80.063, 79.95
80.140, 84.43
80.263, 84.99
80.340, 87.05
80.463, 86.56
80.540, 82.67
80.663, 88.33
80.740, 84.44
80.863, 81.89
80.940, 84.49
81.063, 86.40
81.140, 85.21
81.263, 84.39
81.340, 85.11
81.463, 91.07
81.540, 88.85
81.663, 84.34
81.740, 82.72
81.863, 89.02
81.940, 88.12
82.063, 80.43
82.140, 78.28
82.263, 87.60
82.340, 85.06
82.463, 84.12
82.540, 85.42
82.663, 87.34
82.740, 89.40
82.863, 87.07
82.940, 80.74
83.063, 84.82
83.140, 87.46
83.263, 87.42
83.340, 86.31
83.463, 82.39
83.540, 82.10
83.663, 81.53
83.740, 84.45
83.863, 85.10
83.940, 83.03
84.063, 82.71
84.140, 85.42
84.263, 85.99
84.340, 85.70
84.463, 84.47
84.540, 87.15
84.663, 86.39
84.740, 86.79
84.863, 86.98
84.940, 88.09
85.063, 81.28
85.140, 84.72
85.263, 84.74
85.340, 87.75
85.463, 84.85
85.540, 83.77
85.663, 85.21
85.740, 92.20
85.863, 82.87
85.940, 88.00
86.063, 89.51
86.140, 90.57
86.263, 88.71
86.340, 87.60
86.463, 89.63
86.540, 86.40
86.663, 86.86
86.740, 96.71
86.863, 86.32
86.940, 95.71
87.063, 84.21
87.140, 81.57
87.263, 89.49
87.340, 86.75
87.463, 89.14
87.540, 85.15
87.663, 83.51
87.740, 83.85
87.863, 85.05
87.940, 92.50
88.063, 83.97
88.140, 88.57
88.263, 89.64
88.340, 95.67
88.463, 83.67
88.540, 88.90
88.663, 90.88
88.740, 83.98
88.863, 86.45
88.940, 87.22
89.063, 85.20
89.140, 94.78
89.263, 88.11
89.340, 95.33
89.463, 90.13
89.540, 92.76
89.663, 83.00
89.740, 82.55
89.863, 88.35
89.940, 79.91
90.063, 84.29
90.140, 101.04
90.263, 88.85
90.340, 84.11
90.463, 88.44
90.540, 89.65
90.663, 86.81
90.740, 89.49
90.863, 89.32
90.940, 91.28
91.063, 83.49
91.140, 93.00
91.263, 88.87
91.340, 86.47
91.463, 89.51
91.540, 86.61
91.663, 88.69
91.740, 94.52
91.863, 83.88
91.940, 89.92
92.063, 85.85
92.140, 93.35
92.263, 86.39
92.340, 78.89
92.463, 88.82
92.540, 86.20
92.663, 87.51
92.740, 87.51
92.863, 90.24
92.940, 91.21
93.063, 88.38
93.140, 90.74
93.263, 83.77
93.340, 93.08
93.463, 87.49
93.540, 86.57
93.663, 90.31
93.740, 91.40
93.863, 85.61
93.940, 87.61
94.063, 91.17
94.140, 92.49
94.263, 88.44
94.340, 90.62
94.463, 87.13
94.540, 87.74
94.663, 86.31
94.740, 89.86
94.863, 89.94
94.940, 94.59
95.063, 84.36
95.140, 80.74
95.263, 88.69
95.340, 80.71
95.463, 88.93
95.540, 88.25
95.663, 91.55
95.740, 84.59
95.863, 90.11
95.940, 92.65
96.063, 88.65
96.140, 92.87
96.263, 93.09
96.340, 87.81
96.463, 87.06
96.540, 90.40
96.663, 90.42
96.740, 91.74
96.863, 88.75
96.940, 86.91
97.063, 89.46
97.140, 86.49
97.263, 94.18
97.340, 90.19
97.463, 83.41
97.540, 87.59
97.663, 88.31
97.740, 85.36
97.863, 88.28
97.940, 87.17
98.063, 89.09
98.140, 87.47
98.263, 86.16
98.340, 89.98
98.463, 89.47
98.540, 91.10
98.663, 89.36
98.740, 85.98
98.863, 85.99
98.940, 96.59
99.063, 86.74
99.140, 82.42
99.263, 82.89
99.340, 86.77
99.463, 93.03
99.540, 84.35
99.663, 86.68
99.740, 91.20
99.863, 91.06
99.940, 86.79
100.063, 91.98
100.140, 90.67
100.263, 90.66
100.340, 87.46
100.463, 87.54
100.540, 89.96
100.663, 94.50
100.740, 90.12
100.863, 88.13
100.940, 88.62
101.063, 84.15
101.140, 86.02
101.263, 86.77
101.340, 88.59
101.463, 88.80
101.540, 90.98
101.663, 92.38
101.740, 91.38
101.863, 87.23
101.940, 90.20
102.063, 89.27
102.140, 89.86
102.263, 89.20
102.340, 90.16
102.463, 86.12
102.540, 90.35
102.663, 84.91
102.740, 91.41
102.863, 87.07
102.940, 85.99
103.063, 90.66
103.140, 92.26
103.263, 91.23
103.340, 90.68
103.463, 89.57
103.540, 87.81
103.663, 87.20
103.740, 92.29
103.863, 84.95
103.940, 87.70
104.063, 93.52
104.140, 86.04
104.263, 92.24
104.340, 88.76
104.463, 91.09
104.540, 87.50
104.663, 91.77
104.740, 87.32
104.863, 93.43
104.940, 88.92
105.063, 85.67
105.140, 93.03
105.263, 89.06
105.340, 85.05
105.463, 87.48
105.540, 95.73
105.663, 90.88
105.740, 86.36
105.863, 92.76
105.940, 90.73
106.063, 87.29
106.140, 92.67
106.263, 89.15
106.340, 86.63
106.463, 89.68
106.540, 91.00
106.663, 94.86
106.740, 89.81
106.863, 81.95
106.940, 90.84
107.063, 91.48
107.140, 85.45
107.263, 89.72
107.340, 87.41
107.463, 91.01
107.540, 91.10
107.663, 89.76
107.740, 91.18
107.863, 88.75
107.940, 93.12
108.063, 89.60
108.140, 88.64
108.263, 90.94
108.340, 91.14
108.463, 93.25
108.540, 93.19
108.663, 85.04
108.740, 87.58
108.863, 87.87
108.940, 87.91
109.063, 88.54
109.140, 87.44
109.263, 85.92
109.340, 92.81
109.463, 96.09
109.540, 89.49
109.663, 84.18
109.740, 94.71
109.863, 90.49
109.940, 85.36
110.063, 86.44
110.140, 89.76
110.263, 86.83
110.340, 84.82
110.463, 88.21
110.540, 89.94
110.663, 91.39
110.740, 85.98
110.863, 90.65
110.940, 93.77
111.063, 95.35
111.140, 85.48
111.263, 88.46
111.340, 92.34
111.463, 90.38
111.540, 92.33
111.663, 85.34
111.740, 95.40
111.863, 92.33
111.940, 95.05
112.063, 89.01
112.140, 86.04
112.263, 91.41
112.340, 91.67
112.463, 91.72
112.540, 85.03
112.663, 86.71
112.740, 93.53
112.863, 93.36
112.940, 92.07
113.063, 92.65
113.140, 87.93
113.263, 87.06
113.340, 89.67
113.463, 92.79
113.540, 91.44
113.663, 93.17
113.740, 94.44
113.863, 90.81
113.940, 90.10
114.063, 90.21
114.140, 92.31
114.263, 91.67
114.340, 92.35
114.463, 88.97
114.540, 87.39
114.663, 88.05
114.740, 88.69
114.863, 92.97
114.940, 96.78
115.063, 88.69
115.140, 90.62
115.263, 91.03
115.340, 89.62
115.463, 90.05
115.540, 90.77
115.663, 91.30
115.740, 83.39
115.863, 89.92
115.940, 96.23
116.063, 87.20
116.140, 88.71
116.263, 83.97
116.340, 84.62
116.463, 92.60
116.540, 86.21
116.663, 90.68
116.740, 87.54
116.863, 92.24
116.940, 87.85
117.063, 90.90
117.140, 90.03
117.263, 94.87
117.340, 91.78
117.463, 91.30
117.540, 90.54
117.663, 94.94
117.740, 95.05
117.863, 93.57
117.940, 89.24
118.063, 91.52
118.140, 95.58
118.263, 91.06
118.340, 92.74
118.463, 97.19
118.540, 85.35
118.663, 88.15
118.740, 96.27
118.863, 85.71
118.940, 96.44
119.063, 91.47
119.140, 97.51
119.263, 92.28
119.340, 89.22
119.463, 90.24
119.540, 95.39
119.663, 93.91
119.740, 91.02
119.863, 90.72
119.940, 95.97
120.063, 92.49
120.140, 86.81
120.263, 90.34
120.340, 89.83
120.463, 89.25
120.540, 92.00
120.663, 92.66
120.740, 98.37
120.863, 91.83
120.940, 98.59
121.063, 87.41
121.140, 87.69
121.263, 91.37
121.340, 87.56
121.463, 90.80
121.540, 90.36
121.663, 92.65
121.740, 93.10
121.863, 92.07
121.940, 86.91
122.063, 96.45
122.140, 91.08
122.263, 95.06
122.340, 96.90
122.463, 89.13
122.540, 90.80
122.663, 92.06
122.740, 90.46
122.863, 91.07
122.940, 97.47
123.063, 89.30
123.140, 97.47
123.263, 88.63
123.340, 94.80
123.463, 93.29
123.540, 94.98
123.663, 90.35
123.740, 89.73
123.863, 95.24
123.940, 94.32
124.063, 95.39
124.140, 86.71
124.263, 92.00
124.340, 92.41
124.463, 91.72
124.540, 90.39
124.663, 89.76
124.740, 93.03
124.863, 94.91
124.940, 88.69
125.063, 88.14
125.140, 91.81
125.263, 90.83
125.340, 91.32
125.463, 94.95
125.540, 94.30
125.663, 93.48
125.740, 93.42
125.863, 88.70
125.940, 96.55
126.063, 88.81
126.140, 94.17
126.263, 93.98
126.340, 94.31
126.463, 91.94
126.540, 92.98
126.663, 96.00
126.740, 91.34
126.863, 92.72
126.940, 88.98
127.063, 97.10
127.140, 88.11
127.263, 96.36
127.340, 90.40
127.463, 90.73
127.540, 94.92
127.663, 90.94
127.740, 87.40
127.863, 92.48
127.940, 90.80
128.063, 95.74
128.140, 89.84
128.263, 95.40
128.340, 95.28
128.463, 92.25
128.540, 89.60
128.663, 93.26
128.740, 93.66
128.863, 96.03
128.940, 89.05
129.063, 96.70
129.140, 89.58
129.263, 93.43
129.340, 90.31
129.463, 88.67
129.540, 91.44
129.663, 95.23
129.740, 93.90
129.863, 92.39
129.940, 87.87
130.063, 97.03
130.140, 88.32
130.263, 90.35
130.340, 91.80
130.463, 93.03
130.540, 88.83
130.663, 96.56
130.740, 83.22
130.863, 93.33
130.940, 85.91
131.063, 90.27
131.140, 90.69
131.263, 91.66
131.340, 95.91
131.463, 89.48
131.540, 87.09
131.663, 82.94
131.740, 97.72
131.863, 94.08
131.940, 89.43
132.063, 93.29
132.140, 88.40
132.263, 95.06
132.340, 96.47
132.463, 96.30
132.540, 91.90
132.663, 101.13
132.740, 90.94
132.863, 93.63
132.940, 89.43
133.063, 98.83
133.140, 89.84
133.263, 95.78
133.340, 88.72
133.463, 97.05
133.540, 88.23
133.663, 93.70
133.740, 93.35
133.863, 97.69
133.940, 98.34
134.063, 99.20
134.140, 91.23
134.263, 91.64
134.340, 92.68
134.463, 88.05
134.540, 90.79
134.663, 94.83
134.740, 91.47
134.863, 92.55
134.940, 98.50
135.063, 93.15
135.140, 94.72
135.263, 94.45
135.340, 88.48
135.463, 94.19
135.540, 93.25
135.663, 94.54
135.740, 97.07
135.863, 91.26
135.940, 91.98
136.063, 99.65
136.140, 95.07
136.263, 90.02
136.340, 93.59
136.463, 93.50
136.540, 91.81
136.663, 96.02
136.740, 92.92
136.863, 95.62
136.940, 94.27
137.063, 94.08
137.140, 96.81
137.263, 92.50
137.340, 87.48
137.463, 91.46
137.540, 93.09
137.663, 88.39
137.740, 94.50
137.863, 88.21
137.940, 89.34
138.063, 92.57
138.140, 90.15
138.263, 93.66
138.340, 95.79
138.463, 95.54
138.540, 91.62
138.663, 94.92
138.740, 96.91
138.863, 95.64
138.940, 94.22
139.063, 92.24
139.140, 97.12
139.263, 95.47
139.340, 95.53
139.463, 96.39
139.540, 95.99
139.663, 98.88
139.740, 93.05
139.863, 93.58
139.940, 89.87
140.063, 91.48
140.140, 86.82
140.263, 93.70
140.340, 92.79
140.463, 96.96
140.540, 88.11
140.663, 89.39
140.740, 99.44
140.863, 93.19
140.940, 89.61
141.063, 100.23
141.140, 91.03
141.263, 90.25
141.340, 88.09
141.463, 98.41
141.540, 96.83
141.663, 98.16
141.740, 92.48
141.863, 93.54
141.940, 95.64
142.063, 97.93
142.140, 94.52
142.263, 92.21
142.340, 92.86
142.463, 96.24
142.540, 88.59
142.663, 92.35
142.740, 93.65
142.863, 92.14
142.940, 91.27
143.063, 97.17
143.140, 88.60
143.263, 96.23
143.340, 93.74
143.463, 98.98
143.540, 94.99
143.663, 90.50
143.740, 95.04
143.863, 92.05
143.940, 96.89
144.063, 103.81
144.140, 90.53
144.263, 94.64
144.340, 95.58
144.463, 97.08
144.540, 92.61
144.663, 91.79
144.740, 94.66
144.863, 93.98
144.940, 100.59
145.063, 89.88
145.140, 91.43
145.263, 102.97
145.340, 100.65
145.463, 89.64
145.540, 92.75
145.663, 89.33
145.740, 89.84
145.863, 88.53
145.940, 99.75
146.063, 93.54
146.140, 87.59
146.263, 90.55
146.340, 94.07
146.463, 100.69
146.540, 93.43
146.663, 96.34
146.740, 92.79
146.863, 93.42
146.940, 93.32
147.063, 91.04
147.140, 95.99
147.263, 95.50
147.340, 88.27
147.463, 92.27
147.540, 91.68
147.663, 104.59
147.740, 93.07
147.863, 97.81
147.940, 85.68
148.063, 89.94
148.140, 104.59
148.263, 100.66
148.340, 92.27
148.463, 91.42
148.540, 100.35
148.663, 99.53
148.740, 100.37
148.863, 98.64
148.940, 96.83
149.063, 102.27
149.140, 91.96
149.263, 105.91
149.340, 91.95
149.463, 97.30
149.540, 95.23
149.663, 96.73
149.740, 89.19
149.863, 98.58
149.940, 97.65
150.063, 101.65
150.140, 89.96
150.263, 93.89
150.340, 94.60
150.463, 92.90
150.540, 97.00
150.663, 99.07
150.740, 95.67
150.863, 99.88
150.940, 91.18
151.063, 96.52
151.140, 90.80
151.263, 91.28
151.340, 90.28
151.463, 101.39
151.540, 87.98
151.663, 99.34
151.740, 86.23
151.863, 91.62
151.940, 93.24
152.063, 93.79
152.140, 95.90
152.263, 98.42
152.340, 98.92
152.463, 100.94
152.540, 93.18
152.663, 97.23
152.740, 93.23
152.863, 102.71
152.940, 94.55
153.063, 96.47
153.140, 100.71
153.263, 95.41
153.340, 94.56
153.463, 95.38
153.540, 94.23
153.663, 89.98
153.740, 89.51
153.863, 95.23
153.940, 93.34
154.063, 89.75
154.140, 93.82
154.263, 93.94
154.340, 96.83
154.463, 87.98
154.540, 101.98
154.663, 99.61
154.740, 94.42
154.863, 94.45
154.940, 86.64
155.063, 94.87
155.140, 93.67
155.263, 92.30
155.340, 92.58
155.463, 99.99
155.540, 93.72
155.663, 89.74
155.740, 92.33
155.863, 91.88
155.940, 96.35
156.063, 97.87
156.140, 96.45
156.263, 103.28
156.340, 92.06
156.463, 94.35
156.540, 99.36
156.663, 104.22
156.740, 90.99
156.863, 96.37
156.940, 88.55
157.063, 93.08
157.140, 94.49
157.263, 97.22
157.340, 91.13
157.463, 96.53
157.540, 90.60
157.663, 89.87
157.740, 90.21
157.863, 101.49
157.940, 90.63
158.063, 93.37
158.140, 90.13
158.263, 96.40
158.340, 96.16
158.463, 93.00
158.540, 90.38
158.663, 100.77
158.740, 100.87
158.863, 97.03
158.940, 90.05
159.063, 99.84
159.140, 95.54
159.263, 98.14
159.340, 88.29
159.463, 93.24
159.540, 101.27
159.663, 101.11
159.740, 97.51
159.863, 97.39
159.940, 92.04
160.063, 92.74
160.140, 92.59
160.263, 100.48
160.340, 99.51
160.463, 93.34
160.540, 90.12
160.663, 89.33
160.740, 93.03
160.863, 92.14
160.940, 94.30
161.063, 95.49
161.140, 91.57
161.263, 104.03
161.340, 86.44
161.463, 92.65
161.540, 90.22
161.663, 92.86
161.740, 91.87
161.863, 101.76
161.940, 97.14
162.063, 100.56
162.140, 92.25
162.263, 95.98
162.340, 94.88
162.463, 102.91
162.540, 100.54
162.663, 90.45
162.740, 95.02
162.863, 97.04
162.940, 99.34
163.063, 93.33
163.140, 94.95
163.263, 99.99
163.340, 94.47
163.463, 98.81
163.540, 91.14
163.663, 100.07
163.740, 93.59
163.863, 98.55
163.940, 89.80
164.063, 99.55
164.140, 99.38
164.263, 100.52
164.340, 90.11
164.463, 94.87
164.540, 93.03
164.663, 93.90
164.740, 98.51
164.863, 98.45
164.940, 98.31
165.063, 103.21
165.140, 95.99
165.263, 100.21
165.340, 90.18
165.463, 102.86
165.540, 101.27
165.663, 102.36
165.740, 92.10
165.863, 91.70
165.940, 96.23
166.063, 92.75
166.140, 99.52
166.263, 97.51
166.340, 95.05
166.463, 103.70
166.540, 93.17
166.663, 104.81
166.740, 93.49
166.863, 92.11
166.940, 100.22
167.063, 97.59
167.140, 97.32
167.263, 98.14
167.340, 97.02
167.463, 105.32
167.540, 93.10
167.663, 96.41
167.740, 99.99
167.863, 91.63
167.940, 93.19
168.063, 92.58
168.140, 95.53
168.263, 94.69
168.340, 97.34
168.463, 100.15
168.540, 97.38
168.663, 95.03
168.740, 101.49
168.863, 94.68
168.940, 99.99
169.063, 92.92
169.140, 92.03
169.263, 104.06
169.340, 93.99
169.463, 95.27
169.540, 90.92
169.663, 94.41
169.740, 93.23
169.863, 93.44
169.940, 96.21
170.063, 88.61
170.140, 95.80
170.263, 96.23
170.340, 100.39
170.463, 99.57
170.540, 94.60
170.663, 98.57
170.740, 95.96
170.863, 96.11
170.940, 97.12
171.063, 94.10
171.140, 96.66
171.263, 97.01
171.340, 97.18
171.463, 94.12
171.540, 101.13
171.663, 97.66
171.740, 96.46
171.863, 91.33
171.940, 95.68
172.063, 99.02
172.140, 93.48
172.263, 96.83
172.340, 99.05
172.463, 92.97
172.540, 93.73
172.663, 96.69
172.740, 98.05
172.863, 97.06
172.940, 95.60
173.063, 99.16
173.140, 101.18
173.263, 95.85
173.340, 97.05
173.463, 98.02
173.540, 100.08
173.663, 102.53
173.740, 95.18
173.863, 98.73
173.940, 104.02
174.063, 95.60
174.140, 93.48
174.263, 97.88
174.340, 101.25
174.463, 101.99
174.540, 103.04
174.663, 99.33
174.740, 92.82
174.863, 98.09
174.940, 97.02
175.063, 89.88
175.140, 94.01
175.263, 97.80
175.340, 98.21
175.463, 96.04
175.540, 93.32
175.663, 98.36
175.740, 99.50
175.863, 94.21
175.940, 94.87
176.063, 100.42
176.140, 97.89
176.263, 96.60
176.340, 94.36
176.463, 91.52
176.540, 94.44
176.663, 96.83
176.740, 89.14
176.863, 95.11
176.940, 96.02
177.063, 92.76
177.140, 97.41
177.263, 95.89
177.340, 100.45
177.463, 101.62
177.540, 105.08
177.663, 102.00
177.740, 102.36
177.863, 99.90
177.940, 96.56
178.063, 95.57
178.140, 97.41
178.263, 95.35
178.340, 95.42
178.463, 95.86
178.540, 90.96
178.663, 95.00
178.740, 97.86
178.863, 96.92
178.940, 101.56
179.063, 95.15
179.140, 98.46
179.263, 99.95
179.340, 105.77
179.463, 99.07
179.540, 95.61
179.663, 99.17
179.740, 100.05
179.863, 92.72
179.940, 92.64
180.063, 100.86
180.140, 100.83
180.263, 99.48
180.340, 97.99
180.463, 98.88
180.540, 101.65
180.663, 97.86
180.740, 92.20
180.863, 93.70
180.940, 96.78
181.063, 99.88
181.140, 97.57
181.263, 97.89
181.340, 102.23
181.463, 97.47
181.540, 98.11
181.663, 97.96
181.740, 97.95
181.863, 101.29
181.940, 100.04
182.063, 99.20
182.140, 99.42
182.263, 99.56
182.340, 97.56
182.463, 94.13
182.540, 98.12
182.663, 97.99
182.740, 96.50
182.863, 95.24
182.940, 96.58
183.063, 94.43
183.140, 102.61
183.263, 94.35
183.340, 97.81
183.463, 101.33
183.540, 91.93
183.663, 92.16
183.740, 95.43
183.863, 99.22
183.940, 98.54
184.063, 95.62
184.140, 92.98
184.263, 98.67
184.340, 93.88
184.463, 90.72
184.540, 96.22
184.663, 95.61
184.740, 103.94
184.863, 95.82
184.940, 95.28
185.063, 96.91
185.140, 94.75
185.263, 93.81
185.340, 91.87
185.463, 95.22
185.540, 99.16
185.663, 99.87
185.740, 92.76
185.863, 95.96
185.940, 95.15
186.063, 96.97
186.140, 95.22
186.263, 94.03
186.340, 96.96
186.463, 101.55
186.540, 100.98
186.663, 99.35
186.740, 97.66
186.863, 93.03
186.940, 101.78
187.063, 94.78
187.140, 98.27
187.263, 99.96
187.340, 97.41
187.463, 99.15
187.540, 92.87
187.663, 95.78
187.740, 97.69
187.863, 96.33
187.940, 103.19
188.063, 100.77
188.140, 89.89
188.263, 99.98
188.340, 97.92
188.463, 95.75
188.540, 97.22
188.663, 95.05
188.740, 91.51
188.863, 98.84
188.940, 92.22
189.063, 100.15
189.140, 94.22
189.263, 93.71
189.340, 99.47
189.463, 100.02
189.540, 91.49
189.663, 96.36
189.740, 93.77
189.863, 96.07
189.940, 94.36
190.063, 94.44
190.140, 96.44
190.263, 97.95
190.340, 99.19
190.463, 97.81
190.540, 96.66
190.663, 94.17
190.740, 93.84
190.863, 99.26
190.940, 96.38
191.063, 94.81
191.140, 100.72
191.263, 96.72
191.340, 97.85
191.463, 92.98
191.540, 92.96
191.663, 99.66
191.740, 95.28
191.863, 99.12
191.940, 98.81
192.063, 91.89
192.140, 98.06
192.263, 94.77
192.340, 99.03
192.463, 98.99
192.540, 90.66
192.663, 97.85
192.740, 94.52
192.863, 96.43
192.940, 99.99
193.063, 98.65
193.140, 97.92
193.263, 98.45
193.340, 96.69
193.463, 97.74
193.540, 93.11
193.663, 100.72
193.740, 92.82
193.863, 98.74
193.940, 101.23
194.063, 99.25
194.140, 99.69
194.263, 96.65
194.340, 98.32
194.463, 98.59
194.540, 97.23
194.663, 99.40
194.740, 96.42
194.863, 100.33
194.940, 93.31
195.063, 95.53
195.140, 93.54
195.263, 98.86
195.340, 96.55
195.463, 94.43
195.540, 95.10
195.663, 98.97
195.740, 93.10
195.863, 96.45
195.940, 94.11
196.063, 95.11
196.140, 97.37
196.263, 100.28
196.340, 103.93
196.463, 96.19
196.540, 100.27
196.663, 94.37
196.740, 95.98
196.863, 95.18
196.940, 97.67
197.063, 99.11
197.140, 97.51
197.263, 96.55
197.340, 97.16
197.463, 95.17
197.540, 93.27
197.663, 100.50
197.740, 95.54
197.863, 96.21
197.940, 94.77
198.063, 97.40
198.140, 101.03
198.263, 96.61
198.340, 97.39
198.463, 95.28
198.540, 99.15
198.663, 96.86
198.740, 101.34
198.863, 98.96
198.940, 92.64
199.063, 100.33
199.140, 98.10
199.263, 100.14
199.340, 98.77
199.463, 100.60
199.540, 93.51
199.663, 100.16
199.740, 92.07
199.863, 97.52
199.940, 92.96
200.063, 98.88
200.140, 97.13
200.263, 95.15
200.340, 100.23
200.463, 97.36
200.540, 101.61
200.663, 99.89
200.740, 93.25
200.863, 97.38
200.940, 96.64
201.063, 95.58
201.140, 98.60
201.263, 98.21
201.340, 93.47
201.463, 95.14
201.540, 98.85
201.663, 98.52
201.740, 92.76
201.863, 93.40
201.940, 99.09
202.063, 96.73
202.140, 96.37
202.263, 94.94
202.340, 100.69
202.463, 98.37
202.540, 95.20
202.663, 98.63
202.740, 96.49
202.863, 99.97
202.940, 101.00
203.063, 95.15
203.140, 101.79
203.263, 98.47
203.340, 96.90
203.463, 102.17
203.540, 98.67
203.663, 99.57
203.740, 94.98
203.863, 99.31
203.940, 96.30
204.063, 95.11
204.140, 98.10
204.263, 99.27
204.340, 94.07
204.463, 98.18
204.540, 93.75
204.663, 99.43
204.740, 96.01
204.863, 92.92
204.940, 90.34
205.063, 96.69
205.140, 92.73
205.263, 95.74
205.340, 91.72
205.463, 94.28
205.540, 92.77
205.663, 96.77
205.740, 93.38
205.863, 99.04
205.940, 99.14
206.063, 92.69
206.140, 95.97
206.263, 93.63
206.340, 100.20
206.463, 92.98
206.540, 94.12
206.663, 95.42
206.740, 95.54
206.863, 98.74
206.940, 98.26
207.063, 95.49
207.140, 96.48
207.263, 97.18
207.340, 96.74
207.463, 98.60
207.540, 98.79
207.663, 98.22
207.740, 98.28
207.863, 95.61
207.940, 95.35
208.063, 95.82
208.140, 94.67
208.263, 96.25
208.340, 97.84
208.463, 94.57
208.540, 97.67
208.663, 97.03
208.740, 93.92
208.863, 99.34
208.940, 97.30
209.063, 97.12
209.140, 94.25
209.263, 97.82
209.340, 96.15
209.463, 98.69
209.540, 98.79
209.663, 94.22
209.740, 94.14
209.863, 96.24
209.940, 98.07
210.063, 96.62
210.140, 93.57
210.263, 94.74
210.340, 95.44
210.463, 93.09
210.540, 94.36
210.663, 97.55
210.740, 96.02
210.863, 97.33
210.940, 94.49
211.063, 96.75
211.140, 97.43
211.263, 99.21
211.340, 95.57
211.463, 99.35
211.540, 99.80
211.663, 94.88
211.740, 98.39
211.863, 96.36
211.940, 95.06
212.063, 93.02
212.140, 97.53
212.263, 100.59
212.340, 97.92
212.463, 92.97
212.540, 94.42
212.663, 100.36
212.740, 96.18
212.863, 97.00
212.940, 96.98
213.063, 100.48
213.140, 94.39
213.263, 96.96
213.340, 100.98
213.463, 94.25
213.540, 98.59
213.663, 95.97
213.740, 96.62
213.863, 96.67
213.940, 96.48
