time (sec), voltage (V)
0.049, -0.73
0.051, -0.68
0.155, -1.06
0.156, -1.16
0.251, -0.51
0.251, -0.46
0.354, -0.99
0.356, -1.18
0.450, -0.57
0.452, -0.35
0.554, -1.00
0.554, -1.08
0.753, -0.73
0.755, -0.92
0.851, -0.49
0.851, -0.36
0.952, -0.36
0.952, -0.42
1.151, -0.22
1.153, -0.68
1.249, -0.75
1.251, -0.70
1.352, -0.25
1.353, -0.62
1.354, -1.05
1.356, -1.16
1.451, -0.47
1.453, -0.14
1.552, -0.38
1.554, -0.64
1.555, -1.23
1.555, -1.25
1.652, -0.30
1.652, -0.16
1.850, -0.83
1.850, -0.84
1.951, -0.20
1.954, -0.96
1.954, -1.11
1.956, -1.19
2.151, -0.21
2.155, -1.00
2.249, -0.81
2.250, -0.68
2.252, -0.31
2.252, -0.14
2.352, -0.45
2.354, -0.74
2.449, -0.76
2.451, -0.66
2.553, -0.74
2.555, -0.99
2.651, -0.65
2.652, -0.29
2.752, -0.46
2.753, -0.67
2.754, -0.95
2.756, -1.19
2.852, -0.31
2.853, -0.13
2.952, -0.28
2.952, -0.30
3.154, -0.73
3.155, -0.95
3.251, -0.56
3.251, -0.47
3.351, -0.19
3.352, -0.39
3.452, -0.35
3.452, -0.17
3.552, -0.24
3.552, -0.30
3.652, -0.33
3.652, -0.19
3.751, -0.19
3.752, -0.39
3.754, -1.04
3.754, -1.04
3.850, -0.57
3.852, -0.13
3.862, 1.67
3.942, 1.55
3.955, -0.98
3.955, -1.07
4.058, 0.90
4.146, 0.88
4.152, -0.47
4.154, -0.87
4.251, -0.44
4.251, -0.36
4.260, 1.27
4.345, 0.96
4.352, -0.24
4.352, -0.32
4.451, -0.48
4.453, -0.13
4.458, 0.95
4.545, 1.09
4.551, -0.19
4.553, -0.49
4.553, -0.60
4.554, -1.03
4.649, -0.81
4.651, -0.71
4.659, 1.16
4.745, 1.00
4.752, -0.45
4.754, -0.85
4.849, -0.77
4.852, -0.34
4.859, 1.11
4.946, 0.93
4.952, -0.38
4.955, -1.16
5.052, -0.36
5.053, -0.12
5.058, 1.00
5.145, 1.06
5.152, -0.44
5.154, -0.77
5.252, -0.30
5.252, -0.20
5.258, 1.00
5.344, 1.14
5.352, -0.46
5.353, -0.74
5.355, -1.01
5.355, -1.06
5.459, 1.09
5.545, 0.95
5.552, -0.24
5.554, -1.00
5.659, 1.11
5.745, 0.94
5.754, -0.95
5.756, -1.20
5.850, -0.64
5.852, -0.28
5.858, 1.03
5.945, 1.11
5.953, -0.45
5.956, -1.11
6.049, -0.75
6.051, -0.67
6.058, 0.98
6.145, 1.06
6.151, -0.20
6.154, -1.11
6.250, -0.63
6.252, -0.26
6.258, 0.93
6.345, 0.94
6.353, -0.48
6.356, -1.17
6.449, -0.83
6.450, -0.82
6.452, -0.34
6.453, -0.14
6.458, 0.94
6.545, 1.06
6.546, 0.94
6.546, 0.83
6.650, -0.51
6.652, -0.30
6.659, 1.07
6.745, 1.02
6.751, -0.22
6.753, -0.48
6.851, -0.49
6.851, -0.44
6.858, 0.94
6.945, 1.09
7.058, 1.04
7.145, 0.98
7.153, -0.72
7.155, -1.02
7.252, -0.33
7.253, -0.12
7.258, 1.00
7.345, 1.03
7.449, -0.82
7.451, -0.60
7.458, 0.91
7.545, 1.09
7.553, -0.83
7.555, -0.97
7.658, 1.05
7.746, 0.91
7.756, -1.18
7.756, -1.19
7.850, -0.72
7.852, -0.15
7.859, 1.07
7.946, 0.84
7.953, -0.81
7.954, -0.98
8.052, -0.29
8.052, -0.14
8.059, 1.09
8.145, 0.95
8.153, -0.50
8.153, -0.52
8.250, -0.55
8.252, -0.28
8.258, 0.90
8.345, 1.06
8.351, -0.19
8.356, -1.14
8.452, -0.34
8.453, -0.14
8.458, 0.92
8.545, 1.01
8.552, -0.38
8.554, -0.99
8.651, -0.60
8.651, -0.36
8.658, 0.94
8.745, 1.07
8.753, -0.57
8.755, -0.96
8.851, -0.39
8.853, -0.12
8.858, 1.00
8.945, 1.00
8.952, -0.47
8.953, -0.73
8.954, -1.08
8.956, -1.17
9.058, 0.98
9.146, 0.84
9.152, -0.22
9.152, -0.39
9.153, -0.87
9.155, -1.10
9.156, -1.17
9.156, -1.19
9.258, 1.06
9.345, 1.06
9.353, -0.81
9.355, -0.96
9.459, 1.07
9.546, 0.92
9.551, -0.18
9.552, -0.38
9.555, -1.02
9.555, -1.08
9.658, 0.93
9.745, 1.09
9.752, -0.51
9.753, -0.88
9.850, -0.69
9.850, -0.62
9.852, -0.29
9.852, -0.13
9.858, 1.02
9.945, 1.00
9.953, -0.83
9.956, -1.16
10.058, 0.96
10.145, 1.05
10.146, 0.92
10.146, 0.84
10.152, -0.52
10.154, -1.08
10.259, 1.10
10.346, 0.91
10.450, -0.58
10.452, -0.30
10.458, 0.94
10.545, 1.05
10.556, -1.17
10.556, -1.18
10.650, -0.63
10.652, -0.18
10.658, 1.04
10.745, 1.02
10.751, -0.22
10.753, -0.64
10.753, -0.82
10.755, -0.92
10.851, -0.54
10.852, -0.27
10.859, 1.13
10.946, 0.92
10.954, -0.82
10.956, -1.11
11.052, -0.34
11.052, -0.14
11.059, 1.09
11.145, 0.99
11.151, -0.20
11.153, -0.91
11.252, -0.26
11.252, -0.14
11.258, 0.98
11.345, 1.12
11.351, -0.18
11.353, -0.44
11.354, -0.76
11.356, -1.14
11.451, -0.58
11.451, -0.36
11.459, 1.08
11.545, 1.08
11.552, -0.54
11.553, -0.97
11.651, -0.45
11.651, -0.35
11.659, 1.12
11.745, 1.06
11.752, -0.45
11.754, -0.94
11.850, -0.67
11.853, -0.11
11.859, 1.07
11.945, 0.98
11.952, -0.57
11.954, -1.02
12.052, -0.24
12.052, -0.19
12.059, 1.12
12.146, 0.91
12.152, -0.26
12.152, -0.41
12.154, -0.79
12.155, -1.04
12.249, -0.84
12.251, -0.55
12.252, -0.27
12.252, -0.21
12.258, 0.94
12.345, 1.08
12.352, -0.39
12.354, -0.84
12.354, -0.94
12.356, -1.15
12.450, -0.50
12.452, -0.35
12.459, 1.11
12.545, 1.00
12.551, -0.21
12.556, -1.16
12.651, -0.53
12.652, -0.18
12.658, 0.94
12.745, 1.09
12.753, -0.81
12.755, -0.96
12.850, -0.77
12.850, -0.73
12.852, -0.38
12.853, -0.09
12.858, 0.99
12.945, 1.07
12.953, -0.67
12.955, -0.92
13.058, 0.95
13.145, 1.12
13.154, -0.76
13.156, -1.16
13.252, -0.23
13.252, -0.21
13.258, 1.05
13.345, 1.04
13.458, 1.04
13.545, 1.02
13.553, -0.53
13.554, -1.00
13.649, -0.74
13.651, -0.62
13.652, -0.28
13.652, -0.15
13.658, 1.02
13.745, 1.00
13.751, -0.22
13.752, -0.35
13.753, -0.70
13.755, -0.96
13.852, -0.29
13.852, -0.18
13.859, 1.17
13.945, 1.10
13.951, -0.21
13.956, -1.18
14.049, -0.86
14.051, -0.69
14.052, -0.34
14.052, -0.15
14.059, 1.13
14.145, 0.96
14.155, -0.99
14.155, -1.10
14.250, -0.55
14.252, -0.27
14.258, 1.06
14.345, 1.02
14.351, -0.20
14.353, -0.50
14.353, -0.59
14.356, -1.11
14.458, 1.04
14.545, 1.02
14.551, -0.24
14.552, -0.49
14.652, -0.29
14.652, -0.13
14.659, 1.13
14.745, 0.97
14.755, -1.05
14.755, -1.07
14.850, -0.61
14.852, -0.33
14.859, 1.21
14.945, 1.00
14.954, -0.93
14.956, -1.12
15.051, -0.46
15.052, -0.19
15.059, 1.11
15.145, 1.12
15.152, -0.45
15.155, -1.06
15.252, -0.34
15.253, -0.10
15.259, 1.17
15.345, 1.03
15.351, -0.27
15.352, -0.50
15.353, -0.67
15.355, -1.05
15.451, -0.51
15.453, -0.09
15.459, 1.08
15.545, 1.01
15.650, -0.57
15.652, -0.31
15.659, 1.17
15.745, 1.06
15.751, -0.24
15.752, -0.46
15.754, -0.74
15.755, -1.10
15.859, 1.09
15.945, 1.11
15.953, -0.75
15.955, -1.10
16.052, -0.25
16.052, -0.21
16.059, 1.18
16.145, 1.01
16.152, -0.48
16.153, -0.86
16.251, -0.56
16.251, -0.39
16.259, 1.12
16.345, 1.05
16.353, -0.53
16.355, -1.06
16.450, -0.54
16.453, -0.13
16.459, 1.20
16.545, 1.12
16.551, -0.24
16.552, -0.46
16.650, -0.63
16.650, -0.61
16.659, 1.14
16.745, 1.09
16.753, -0.60
16.755, -1.15
16.858, 0.99
16.945, 1.01
16.953, -0.78
16.956, -1.09
17.059, 1.07
17.145, 1.04
17.151, -0.18
17.153, -0.56
17.250, -0.56
17.252, -0.35
17.259, 1.09
17.345, 1.04
17.355, -1.12
17.356, -1.18
17.459, 1.13
17.545, 1.14
17.552, -0.54
17.553, -0.89
17.555, -1.01
17.555, -1.04
17.651, -0.58
17.652, -0.35
17.659, 1.07
17.745, 1.02
17.752, -0.48
17.755, -1.03
17.850, -0.50
17.852, -0.33
17.858, 1.06
17.945, 1.03
17.952, -0.42
17.954, -0.94
17.955, -1.14
17.956, -1.21
18.051, -0.57
18.052, -0.36
18.058, 1.06
18.145, 1.13
18.152, -0.50
18.155, -1.05
18.250, -0.51
18.252, -0.31
18.258, 0.99
18.345, 1.02
18.353, -0.81
18.355, -0.97
18.449, -0.86
18.450, -0.78
18.459, 1.07
18.545, 1.06
18.553, -0.70
18.556, -1.15
18.650, -0.62
18.652, -0.32
18.659, 1.09
18.745, 1.07
18.751, -0.19
18.752, -0.42
18.859, 1.18
18.944, 1.15
18.951, -0.20
18.956, -1.10
19.059, 1.10
19.144, 1.15
19.153, -0.58
19.155, -1.02
19.252, -0.32
19.253, -0.12
19.259, 1.18
19.345, 1.06
19.459, 1.13
19.544, 1.22
19.551, -0.22
19.552, -0.48
19.553, -0.74
19.556, -1.10
19.651, -0.46
19.651, -0.43
19.658, 1.03
19.745, 1.09
19.752, -0.38
19.753, -0.67
19.754, -1.03
19.756, -1.09
19.850, -0.51
19.853, -0.11
19.859, 1.09
19.945, 1.06
19.952, -0.38
19.953, -0.58
19.955, -1.01
19.956, -1.17
20.050, -0.67
20.052, -0.37
20.059, 1.11
20.145, 1.03
20.258, 1.06
20.345, 1.10
20.352, -0.43
20.354, -0.91
20.451, -0.65
20.453, -0.12
20.459, 1.13
20.545, 1.11
20.552, -0.50
20.553, -0.78
20.555, -0.97
20.555, -1.09
20.649, -0.76
20.651, -0.43
20.658, 1.04
20.745, 0.97
20.753, -0.53
20.753, -0.80
20.754, -0.94
20.756, -1.14
20.850, -0.60
20.852, -0.31
20.858, 1.04
20.945, 1.07
20.952, -0.43
20.955, -1.08
21.058, 1.05
21.145, 1.00
21.152, -0.42
21.156, -1.11
21.251, -0.51
21.251, -0.41
21.258, 0.94
21.345, 0.97
21.450, -0.63
21.452, -0.14
21.459, 1.19
21.545, 1.13
21.553, -0.79
21.555, -1.09
21.658, 1.04
21.745, 1.01
21.754, -0.92
21.756, -1.11
21.851, -0.51
21.851, -0.42
21.858, 1.01
21.945, 0.98
21.953, -0.71
21.955, -0.96
22.049, -0.82
22.051, -0.70
22.052, -0.38
22.053, -0.13
22.059, 1.08
22.145, 1.06
22.152, -0.37
22.154, -0.85
22.259, 1.19
22.344, 1.14
22.351, -0.26
22.352, -0.44
22.353, -0.62
22.355, -0.95
22.452, -0.36
22.453, -0.11
22.458, 1.03
22.545, 1.02
22.555, -1.05
22.555, -1.10
22.652, -0.31
22.653, -0.10
22.658, 0.93
22.745, 1.01
22.751, -0.20
22.755, -1.06
22.852, -0.25
22.852, -0.15
22.859, 1.13
22.944, 1.14
22.951, -0.21
22.953, -0.80
23.052, -0.39
23.053, -0.10
23.059, 1.10
23.145, 1.02
23.259, 1.19
23.344, 1.14
23.354, -0.76
23.355, -1.06
23.452, -0.28
23.452, -0.15
23.459, 1.16
23.544, 1.17
23.553, -0.49
23.555, -1.02
23.649, -0.83
23.651, -0.72
23.658, 1.06
23.745, 1.02
23.753, -0.46
23.755, -0.96
23.852, -0.30
23.852, -0.17
23.858, 0.92
23.945, 1.01
23.952, -0.46
23.953, -0.76
24.058, 1.03
24.144, 1.14
24.152, -0.52
24.156, -1.07
24.249, -0.73
24.252, -0.20
24.259, 1.16
24.344, 1.19
24.351, -0.23
24.355, -1.10
24.459, 1.09
24.545, 1.02
24.551, -0.22
24.552, -0.39
24.553, -0.68
24.556, -1.13
24.659, 1.17
24.745, 0.99
24.754, -0.89
24.754, -0.94
24.852, -0.34
24.853, -0.13
24.858, 0.91
24.945, 1.06
24.951, -0.18
24.953, -0.72
24.955, -1.03
24.956, -1.12
25.051, -0.36
25.053, -0.12
25.059, 1.11
25.144, 1.18
25.152, -0.27
25.152, -0.44
25.155, -1.01
25.156, -1.12
25.251, -0.64
25.252, -0.14
25.259, 1.18
25.345, 1.03
25.353, -0.62
25.354, -0.98
25.449, -0.81
25.451, -0.53
25.452, -0.34
25.452, -0.18
25.457, 0.84
25.545, 0.97
25.552, -0.41
25.552, -0.42
25.554, -0.77
25.556, -1.13
25.650, -0.54
25.652, -0.31
25.659, 1.17
25.745, 1.06
25.752, -0.43
25.756, -1.11
25.851, -0.55
25.852, -0.32
25.859, 1.12
25.945, 1.10
25.952, -0.50
25.954, -1.03
25.954, -1.04
25.956, -1.11
26.051, -0.62
26.052, -0.32
26.059, 1.09
26.145, 1.03
26.153, -0.61
26.154, -0.89
26.252, -0.28
26.253, -0.12
26.259, 1.10
26.344, 1.19
26.355, -1.00
26.356, -1.13
26.449, -0.80
26.451, -0.57
26.459, 1.09
26.545, 0.98
26.551, -0.23
26.554, -1.02
26.649, -0.83
26.651, -0.59
26.658, 0.92
26.745, 0.98
26.754, -0.72
26.755, -1.04
26.852, -0.33
26.853, -0.11
26.858, 0.89
26.944, 1.16
26.951, -0.24
26.953, -0.65
27.058, 1.07
27.145, 1.12
27.152, -0.23
27.152, -0.30
27.252, -0.29
27.253, -0.11
27.258, 1.03
27.345, 1.11
27.352, -0.44
27.354, -1.01
27.458, 0.97
27.544, 1.15
27.551, -0.26
27.552, -0.51
27.553, -0.82
27.555, -1.07
27.651, -0.54
27.652, -0.35
27.659, 1.18
27.745, 1.01
27.753, -0.54
27.756, -1.13
27.852, -0.29
27.852, -0.15
27.858, 0.94
27.945, 1.00
27.953, -0.68
27.955, -1.05
28.049, -0.76
28.053, -0.10
28.058, 0.91
28.145, 1.07
28.154, -0.95
28.155, -1.10
28.250, -0.55
28.252, -0.30
28.258, 0.96
28.345, 1.03
28.353, -0.57
28.355, -1.05
28.458, 1.06
28.544, 1.15
28.553, -0.70
28.555, -1.04
28.650, -0.74
28.653, -0.11
28.658, 0.91
28.745, 1.03
28.753, -0.82
28.755, -0.97
28.859, 1.12
28.945, 1.10
28.951, -0.23
28.954, -0.80
29.058, 0.93
29.145, 1.05
29.153, -0.51
29.153, -0.68
29.155, -0.99
29.156, -1.12
29.249, -0.80
29.251, -0.50
29.258, 1.04
29.345, 1.09
29.449, -0.73
29.450, -0.62
29.459, 1.17
29.545, 1.12
29.552, -0.37
29.555, -1.03
29.658, 0.98
29.745, 1.13
29.859, 1.15
29.945, 1.00
30.051, -0.57
30.052, -0.36
30.058, 1.03
30.145, 1.13
30.153, -0.72
30.154, -1.07
30.250, -0.64
30.252, -0.23
30.258, 1.03
30.345, 1.09
30.355, -1.06
30.355, -1.10
30.458, 1.04
30.545, 0.96
30.650, -0.52
30.652, -0.23
30.658, 0.98
30.745, 1.00
30.850, -0.51
30.852, -0.26
30.859, 1.14
30.945, 1.07
30.953, -0.79
30.956, -1.12
31.059, 1.17
31.145, 0.98
31.152, -0.44
31.154, -0.96
31.155, -1.01
31.155, -1.06
31.252, -0.28
31.253, -0.08
31.259, 1.16
31.345, 1.09
31.352, -0.47
31.355, -1.08
31.451, -0.64
31.453, -0.12
31.458, 1.02
31.545, 1.02
31.551, -0.19
31.556, -1.11
31.658, 1.05
31.745, 1.10
31.754, -0.77
31.755, -1.04
31.858, 1.05
31.945, 0.99
31.953, -0.62
31.956, -1.13
32.050, -0.60
32.052, -0.38
32.059, 1.14
32.145, 1.00
32.151, -0.21
32.152, -0.45
32.153, -0.76
32.155, -1.08
32.250, -0.55
32.252, -0.36
32.258, 0.98
32.344, 1.22
32.351, -0.24
32.352, -0.46
32.353, -0.69
32.355, -1.05
32.449, -0.80
32.451, -0.44
32.458, 0.95
32.545, 1.10
32.551, -0.19
32.552, -0.49
32.649, -0.81
32.651, -0.59
32.659, 1.17
32.745, 1.09
32.751, -0.25
32.755, -1.01
32.851, -0.53
32.852, -0.40
32.858, 1.05
32.945, 1.01
32.951, -0.20
32.952, -0.44
32.955, -1.00
32.955, -1.09
33.059, 1.12
33.145, 1.06
33.153, -0.83
33.155, -1.04
33.258, 1.02
33.345, 1.10
33.351, -0.18
33.354, -0.96
33.459, 1.07
33.545, 1.03
33.552, -0.49
33.554, -0.99
33.649, -0.78
33.652, -0.39
33.658, 1.04
33.745, 1.12
33.752, -0.30
33.753, -0.52
33.852, -0.22
33.852, -0.22
33.859, 1.08
33.945, 0.97
33.954, -0.91
33.956, -1.12
34.049, -0.82
34.052, -0.29
34.059, 1.12
34.145, 0.97
34.153, -0.81
34.155, -0.93
34.259, 1.17
34.345, 0.98
34.351, -0.22
34.352, -0.50
34.354, -0.84
34.356, -1.11
34.458, 1.05
34.546, 0.93
34.555, -1.00
34.556, -1.13
34.658, 1.06
34.745, 0.99
34.751, -0.23
34.755, -0.98
34.858, 0.96
34.945, 1.13
35.050, -0.56
35.052, -0.30
35.058, 0.94
35.145, 1.01
35.152, -0.38
35.153, -0.78
35.155, -1.01
35.156, -1.13
35.249, -0.80
35.250, -0.69
35.259, 1.16
35.345, 0.95
35.352, -0.46
35.354, -0.85
35.355, -1.02
35.356, -1.13
35.458, 0.98
35.545, 1.05
35.551, -0.20
35.556, -1.13
35.651, -0.58
35.652, -0.37
35.658, 0.95
35.744, 1.14
35.751, -0.23
35.754, -0.63
35.755, -0.97
35.756, -1.12
35.849, -0.84
35.851, -0.68
35.858, 0.94
35.945, 0.97
35.951, -0.21
35.952, -0.45
35.953, -0.68
35.956, -1.08
36.050, -0.71
36.052, -0.33
36.058, 1.05
36.146, 0.91
36.151, -0.20
36.152, -0.49
36.154, -0.83
36.154, -0.89
36.258, 0.96
36.345, 1.12
36.352, -0.28
36.352, -0.45
36.450, -0.51
36.453, -0.12
36.459, 1.13
36.546, 0.89
36.553, -0.72
36.553, -0.83
36.651, -0.55
36.653, -0.12
36.658, 1.03
36.746, 0.91
36.751, -0.17
36.752, -0.43
36.850, -0.54
36.853, -0.11
36.858, 0.96
36.945, 1.00
36.951, -0.21
36.956, -1.12
37.049, -0.75
37.050, -0.58
37.052, -0.37
37.053, -0.10
37.058, 1.01
37.146, 0.94
37.152, -0.40
37.155, -1.09
37.249, -0.83
37.251, -0.69
37.259, 1.12
37.345, 0.99
37.351, -0.18
37.352, -0.40
37.354, -0.92
37.354, -1.03
37.458, 1.02
37.546, 0.91
37.554, -0.98
37.555, -1.09
37.658, 1.05
37.746, 0.86
37.858, 1.00
37.945, 0.96
37.954, -0.83
37.956, -1.10
38.051, -0.48
38.052, -0.33
38.059, 1.12
38.146, 0.80
38.154, -0.92
38.156, -1.13
38.249, -0.73
38.250, -0.58
38.258, 1.03
38.345, 1.14
38.355, -0.91
38.356, -1.13
38.449, -0.72
38.450, -0.60
38.458, 1.03
38.546, 0.93
38.551, -0.25
38.553, -0.71
38.652, -0.32
38.652, -0.20
38.658, 0.94
38.745, 1.00
38.752, -0.35
38.754, -0.90
38.850, -0.56
38.852, -0.35
38.858, 0.93
38.945, 1.06
38.946, 0.92
38.946, 0.83
39.051, -0.48
39.052, -0.24
39.058, 1.05
39.145, 0.97
39.151, -0.20
39.156, -1.12
39.249, -0.82
39.253, -0.14
39.258, 0.96
39.345, 0.98
39.458, 0.94
39.545, 0.95
39.555, -1.05
39.555, -1.11
39.658, 1.02
39.746, 0.79
39.754, -0.75
39.754, -0.85
39.850, -0.56
39.852, -0.34
39.858, 1.04
39.946, 0.82
39.952, -0.40
39.953, -0.63
40.052, -0.31
40.052, -0.17
40.058, 0.93
40.146, 0.84
40.154, -0.83
40.156, -1.10
40.258, 0.96
40.345, 0.99
40.354, -0.81
40.354, -0.97
40.450, -0.75
40.452, -0.34
40.459, 1.07
40.546, 0.82
40.658, 1.03
40.745, 0.96
40.755, -1.01
40.756, -1.16
40.849, -0.83
40.851, -0.38
40.858, 0.96
40.945, 1.06
40.946, 0.94
40.946, 0.84
41.051, -0.41
41.053, -0.11
41.058, 0.94
41.147, 0.74
41.151, -0.22
41.152, -0.40
41.250, -0.53
41.252, -0.32
41.259, 1.14
41.345, 1.05
41.345, 1.03
41.347, 0.73
41.354, -0.76
41.355, -1.09
41.458, 1.04
41.545, 0.97
41.551, -0.18
41.556, -1.10
41.647, -1.18
41.647, -1.14
41.658, 0.96
41.746, 0.75
41.751, -0.21
41.756, -1.14
41.849, -0.72
41.850, -0.55
41.858, 1.03
41.945, 1.07
41.952, -0.46
41.955, -0.97
42.050, -0.78
42.050, -0.72
42.052, -0.31
42.052, -0.15
42.058, 0.96
42.146, 0.94
42.151, -0.20
42.153, -0.48
42.154, -0.73
42.155, -0.99
42.249, -0.72
42.252, -0.30
42.258, 0.99
42.345, 1.03
42.450, -0.59
42.452, -0.37
42.458, 1.05
42.546, 0.76
42.551, -0.19
42.552, -0.39
42.553, -0.71
42.555, -1.02
42.651, -0.56
42.653, -0.12
42.659, 1.08
42.745, 1.07
42.752, -0.54
42.756, -1.09
42.849, -0.78
42.851, -0.58
42.859, 1.08
42.945, 1.12
42.946, 0.91
42.946, 0.82
42.951, -0.24
42.954, -0.84
43.050, -0.54
43.051, -0.34
43.059, 1.08
43.145, 0.98
43.152, -0.32
43.152, -0.43
43.154, -0.74
43.155, -1.04
43.251, -0.55
43.251, -0.38
43.258, 0.98
43.346, 0.88
43.352, -0.23
43.353, -0.51
43.353, -0.71
43.356, -1.12
43.451, -0.56
43.451, -0.48
43.458, 0.93
43.546, 0.93
43.552, -0.31
43.552, -0.54
43.658, 1.06
43.745, 1.04
43.849, -0.87
43.851, -0.61
43.858, 0.96
43.946, 0.79
43.953, -0.67
43.953, -0.71
44.052, -0.31
44.052, -0.19
44.058, 0.89
44.145, 1.08
44.152, -0.39
44.153, -0.57
44.155, -0.93
44.156, -1.15
44.250, -0.52
44.251, -0.36
44.258, 1.03
44.345, 1.00
44.352, -0.23
44.352, -0.33
44.354, -0.85
44.356, -1.14
44.458, 0.99
44.545, 0.99
44.551, -0.18
44.552, -0.39
44.553, -0.76
44.555, -1.09
44.650, -0.56
44.652, -0.30
44.658, 0.98
44.746, 0.76
44.752, -0.26
44.752, -0.40
44.858, 1.02
44.945, 1.09
44.945, 0.94
44.946, 0.81
45.052, -0.27
45.052, -0.14
45.058, 0.99
45.145, 1.09
45.249, -0.79
45.250, -0.65
45.258, 0.95
45.345, 1.01
45.351, -0.20
45.352, -0.45
45.447, -1.20
45.447, -1.18
45.458, 0.89
45.546, 0.91
45.552, -0.39
45.554, -0.78
45.659, 1.08
45.746, 0.89
45.755, -1.07
45.755, -1.12
45.849, -0.74
45.850, -0.61
45.852, -0.32
45.852, -0.25
45.858, 1.05
45.945, 1.01
45.953, -0.61
45.953, -0.80
45.955, -0.88
45.956, -1.13
46.051, -0.54
46.053, -0.12
46.058, 1.01
46.145, 0.98
46.152, -0.53
46.154, -0.86
46.155, -1.07
46.155, -1.12
46.251, -0.52
46.252, -0.26
46.258, 0.98
46.345, 1.08
46.352, -0.37
46.352, -0.46
46.355, -1.06
46.356, -1.12
46.449, -0.79
46.452, -0.35
46.458, 1.03
46.545, 0.99
46.551, -0.19
46.552, -0.37
46.554, -0.87
46.556, -1.12
46.648, -1.00
46.648, -0.98
46.649, -0.79
46.650, -0.62
46.658, 0.90
46.745, 0.98
46.753, -0.45
46.753, -0.63
46.847, -1.21
46.847, -1.15
46.849, -0.78
46.851, -0.44
46.858, 0.93
46.945, 1.01
46.952, -0.29
46.952, -0.43
46.955, -1.05
46.955, -1.11
47.049, -0.79
47.050, -0.64
47.052, -0.33
47.052, -0.23
47.058, 1.06
47.145, 0.98
47.258, 1.01
47.345, 1.07
47.351, -0.18
47.352, -0.41
47.353, -0.80
47.356, -1.15
47.458, 1.04
47.545, 0.95
47.551, -0.21
47.552, -0.45
47.657, 0.85
47.746, 0.90
47.850, -0.69
47.851, -0.55
47.858, 0.98
47.945, 1.08
47.951, -0.20
47.952, -0.41
48.049, -0.78
48.051, -0.67
48.052, -0.42
48.053, -0.13
48.058, 0.95
48.146, 0.87
48.152, -0.31
48.154, -0.72
48.258, 0.95
48.346, 0.90
48.351, -0.19
48.352, -0.38
48.355, -1.06
48.355, -1.09
48.458, 0.91
48.545, 0.95
48.649, -0.74
48.651, -0.53
48.658, 1.05
48.745, 0.95
48.751, -0.19
48.753, -0.52
48.753, -0.53
48.756, -1.14
48.849, -0.79
48.851, -0.54
48.858, 1.03
48.946, 0.92
48.952, -0.34
48.953, -0.88
48.955, -1.01
48.956, -1.10
49.049, -0.81
49.053, -0.14
49.058, 0.94
49.145, 0.99
49.152, -0.42
49.153, -0.63
49.250, -0.55
49.252, -0.34
49.258, 1.05
49.345, 0.95
49.353, -0.56
49.354, -1.08
49.450, -0.75
49.452, -0.28
49.458, 0.89
49.545, 0.98
49.552, -0.24
49.552, -0.32
49.555, -0.98
49.556, -1.10
49.650, -0.59
49.652, -0.31
49.658, 1.02
49.746, 0.92
49.752, -0.29
49.753, -0.84
49.849, -0.79
49.851, -0.58
49.858, 1.01
49.945, 0.98
49.951, -0.24
49.952, -0.45
50.050, -0.77
50.053, -0.14
50.058, 0.91
50.145, 1.00
50.151, -0.18
50.154, -0.94
50.154, -1.02
50.156, -1.11
50.248, -1.01
50.248, -0.96
50.250, -0.54
50.252, -0.28
50.258, 0.98
50.345, 0.97
50.353, -0.73
50.355, -1.05
50.449, -0.82
50.452, -0.34
50.458, 1.04
50.545, 1.02
50.552, -0.22
50.552, -0.38
50.553, -0.66
50.555, -1.10
50.650, -0.60
50.651, -0.38
50.658, 0.98
50.746, 0.84
50.752, -0.38
50.754, -0.73
50.852, -0.41
50.853, -0.12
50.858, 0.98
50.945, 1.08
51.051, -0.55
51.051, -0.37
51.058, 0.89
51.145, 0.97
51.151, -0.21
51.155, -1.05
51.258, 0.96
51.346, 0.83
51.351, -0.18
51.352, -0.42
51.458, 0.91
51.546, 0.84
51.554, -0.75
51.556, -1.10
51.651, -0.56
51.652, -0.28
51.658, 0.93
51.746, 0.93
51.850, -0.69
51.850, -0.60
51.858, 0.89
51.946, 0.82
51.955, -1.05
51.955, -1.06
52.052, -0.23
52.052, -0.23
52.058, 0.94
52.146, 0.93
52.252, -0.33
52.252, -0.20
52.258, 0.93
52.346, 0.89
52.351, -0.24
52.353, -0.78
52.450, -0.67
52.450, -0.60
52.458, 0.91
52.546, 0.82
52.648, -1.00
52.648, -0.98
52.650, -0.67
52.650, -0.56
52.652, -0.30
52.652, -0.19
52.658, 0.97
52.746, 0.91
52.752, -0.46
52.754, -0.69
52.848, -1.02
52.848, -0.97
52.850, -0.74
52.850, -0.74
52.857, 0.85
52.945, 0.95
52.953, -0.66
52.956, -1.12
53.051, -0.49
53.053, -0.10
53.058, 0.92
53.146, 0.92
53.152, -0.45
53.154, -0.79
53.155, -0.95
53.155, -1.03
53.252, -0.25
53.252, -0.12
53.258, 0.98
53.345, 1.03
53.355, -1.09
53.355, -1.10
53.450, -0.65
53.451, -0.44
53.458, 0.92
53.545, 0.98
53.552, -0.41
53.556, -1.12
53.657, 0.81
53.746, 0.81
53.755, -0.95
53.756, -1.12
53.852, -0.34
53.853, -0.12
53.858, 1.01
53.946, 0.90
53.954, -0.84
53.956, -1.12
54.058, 0.93
54.145, 0.96
54.152, -0.43
54.156, -1.13
54.257, 0.85
54.345, 1.00
54.352, -0.35
54.356, -1.12
54.449, -0.77
54.451, -0.50
54.457, 0.83
54.546, 0.82
54.551, -0.19
54.555, -1.08
54.651, -0.58
54.651, -0.47
54.658, 0.89
54.746, 0.83
54.754, -0.96
54.754, -0.99
54.849, -0.76
54.851, -0.57
54.857, 0.82
54.945, 0.96
54.951, -0.25
54.952, -0.46
54.955, -1.02
54.956, -1.12
55.058, 1.01
55.146, 0.94
55.155, -1.04
55.156, -1.11
55.258, 0.89
55.345, 0.96
55.452, -0.23
55.452, -0.16
55.458, 0.87
55.546, 0.91
55.551, -0.22
55.552, -0.40
55.555, -1.06
55.555, -1.11
55.649, -0.71
55.652, -0.27
55.658, 0.92
55.746, 0.83
55.849, -0.72
55.851, -0.38
55.858, 0.99
55.945, 0.95
55.951, -0.21
55.953, -0.81
56.050, -0.72
56.052, -0.27
56.057, 0.86
56.145, 0.97
56.249, -0.75
56.251, -0.49
56.258, 0.99
56.345, 1.08
56.352, -0.42
56.355, -1.09
56.451, -0.51
56.452, -0.26
56.458, 0.95
56.546, 0.86
56.651, -0.55
56.652, -0.20
56.658, 0.95
56.745, 0.97
56.752, -0.40
56.756, -1.11
56.857, 0.83
56.946, 0.90
56.951, -0.17
56.952, -0.36
56.954, -0.73
56.954, -0.99
57.049, -0.74
57.051, -0.55
57.058, 0.92
57.146, 0.88
57.257, 0.85
57.346, 0.90
57.449, -0.75
57.451, -0.55
57.458, 0.91
57.546, 0.81
57.552, -0.46
57.556, -1.12
57.651, -0.51
57.652, -0.28
57.658, 0.89
57.746, 0.94
57.752, -0.31
57.754, -0.97
57.852, -0.22
57.852, -0.19
57.858, 0.97
57.945, 0.94
57.955, -1.01
57.956, -1.13
58.058, 0.98
58.146, 0.78
58.151, -0.18
58.154, -0.99
58.251, -0.49
58.251, -0.41
58.258, 0.90
58.345, 0.95
58.353, -0.71
58.356, -1.13
58.450, -0.64
58.450, -0.61
58.458, 0.98
58.546, 0.93
58.552, -0.47
58.553, -0.79
58.555, -1.02
58.556, -1.12
58.649, -0.73
58.652, -0.34
58.658, 0.95
58.746, 0.94
58.752, -0.42
58.755, -1.01
58.849, -0.83
58.850, -0.69
58.857, 0.84
58.946, 0.89
58.952, -0.28
58.954, -0.93
59.050, -0.74
59.050, -0.61
59.057, 0.84
59.146, 0.90
59.250, -0.58
59.251, -0.30
59.257, 0.86
59.346, 0.91
59.458, 1.00
59.546, 0.83
59.657, 0.83
59.746, 0.88
59.752, -0.39
59.755, -1.04
59.858, 0.97
59.946, 0.84
59.952, -0.42
59.954, -0.90
60.052, -0.29
60.052, -0.16
60.057, 0.84
60.145, 0.95
60.154, -0.88
60.154, -0.96
60.251, -0.52
60.251, -0.45
60.257, 0.82
60.345, 0.95
60.355, -1.01
60.356, -1.13
60.458, 0.87
60.546, 0.91
60.551, -0.20
60.552, -0.49
60.554, -1.03
60.556, -1.12
60.652, -0.26
60.652, -0.12
60.658, 0.89
60.745, 0.95
60.755, -1.00
60.756, -1.12
60.852, -0.19
60.852, -0.18
60.858, 0.90
60.946, 0.85
61.052, -0.24
61.052, -0.12
61.058, 0.88
61.146, 0.89
61.155, -1.01
61.156, -1.12
61.250, -0.56
61.252, -0.36
61.258, 0.94
61.346, 0.92
61.352, -0.38
61.356, -1.11
61.458, 0.97
61.546, 0.93
61.552, -0.35
61.554, -0.90
61.657, 0.79
61.746, 0.87
61.852, -0.25
61.852, -0.17
61.857, 0.85
61.946, 0.93
61.953, -0.67
61.955, -1.01
62.051, -0.68
62.053, -0.11
62.057, 0.80
62.146, 0.94
62.151, -0.24
62.152, -0.47
62.153, -0.66
62.156, -1.08
62.251, -0.72
62.252, -0.42
62.258, 0.96
62.346, 0.88
62.351, -0.25
62.352, -0.43
62.457, 0.83
62.545, 0.95
62.552, -0.35
62.556, -1.13
62.657, 0.79
62.746, 0.83
62.852, -0.26
62.852, -0.16
62.857, 0.85
62.946, 0.90
62.952, -0.43
62.953, -0.77
62.955, -1.01
62.956, -1.13
63.050, -0.60
63.052, -0.30
63.058, 0.88
63.145, 0.99
63.153, -0.65
63.155, -1.02
63.249, -0.76
63.251, -0.45
63.251, -0.40
63.253, -0.11
63.257, 0.83
63.346, 0.83
63.353, -0.65
63.356, -1.10
63.458, 0.98
63.546, 0.78
63.551, -0.16
63.555, -1.03
63.649, -0.78
63.651, -0.59
63.658, 0.90
63.746, 0.93
63.752, -0.43
63.754, -0.80
63.755, -0.95
63.756, -1.11
63.852, -0.31
63.852, -0.16
63.857, 0.87
63.946, 0.86
63.955, -0.98
63.956, -1.12
64.057, 0.82
64.146, 0.92
64.151, -0.19
64.153, -0.75
64.258, 0.94
64.346, 0.83
64.354, -0.64
64.356, -1.11
64.450, -0.71
64.452, -0.34
64.458, 0.92
64.546, 0.84
64.552, -0.40
64.553, -0.77
64.555, -0.96
64.556, -1.07
64.649, -0.82
64.651, -0.53
64.651, -0.43
64.653, -0.14
64.658, 0.91
64.746, 0.94
64.851, -0.52
64.851, -0.39
64.858, 0.94
64.945, 0.99
64.952, -0.33
64.955, -1.01
65.052, -0.22
65.052, -0.17
65.057, 0.80
65.146, 0.88
65.258, 0.91
65.346, 0.84
65.352, -0.51
65.354, -0.77
65.452, -0.38
65.453, -0.13
65.457, 0.77
65.546, 0.79
65.552, -0.26
65.553, -0.52
65.658, 0.89
65.746, 0.91
65.753, -0.65
65.756, -1.11
65.857, 0.78
65.946, 0.86
65.953, -0.56
65.954, -0.69
65.955, -0.97
65.955, -1.07
66.058, 0.90
66.146, 0.85
66.151, -0.21
66.152, -0.38
66.153, -0.61
66.156, -1.11
66.250, -0.60
66.252, -0.15
66.258, 0.93
66.346, 0.85
66.458, 0.89
66.546, 0.87
66.552, -0.31
66.554, -0.66
66.554, -0.82
66.556, -1.13
66.651, -0.50
66.652, -0.19
66.658, 0.96
66.746, 0.82
66.751, -0.19
66.755, -0.97
66.850, -0.53
66.852, -0.19
66.858, 0.89
66.946, 0.90
66.952, -0.37
66.953, -0.74
66.955, -0.90
66.956, -1.12
67.050, -0.61
67.052, -0.22
67.057, 0.76
67.146, 0.81
67.249, -0.81
67.251, -0.53
67.257, 0.85
67.346, 0.82
67.451, -0.69
67.452, -0.36
67.457, 0.85
67.546, 0.88
67.551, -0.21
67.552, -0.38
67.553, -0.72
67.555, -0.99
67.652, -0.29
67.653, -0.12
67.658, 0.88
67.746, 0.82
67.858, 0.93
67.947, 0.72
68.050, -0.51
68.052, -0.36
68.057, 0.84
68.147, 0.75
68.151, -0.19
68.152, -0.37
68.154, -0.63
68.154, -0.87
68.252, -0.23
68.252, -0.17
68.257, 0.82
68.346, 0.94
68.354, -0.81
68.356, -1.12
68.449, -0.81
68.451, -0.64
68.452, -0.42
68.452, -0.16
68.457, 0.84
68.546, 0.89
68.553, -0.53
68.555, -1.04
68.658, 0.95
68.746, 0.80
68.753, -0.67
68.754, -0.95
68.850, -0.60
68.852, -0.35
68.858, 0.88
68.946, 0.86
68.953, -0.53
68.953, -0.80
69.058, 0.88
69.147, 0.72
69.152, -0.38
69.154, -0.79
69.252, -0.31
69.252, -0.25
69.258, 0.93
69.346, 0.84
69.355, -0.95
69.356, -1.08
69.457, 0.78
69.546, 0.89
69.552, -0.49
69.554, -1.00
69.657, 0.77
69.746, 0.79
69.752, -0.35
69.753, -0.80
69.849, -0.78
69.850, -0.64
69.858, 0.93
69.946, 0.81
69.954, -0.71
69.956, -1.13
70.049, -0.80
70.051, -0.64
70.052, -0.31
70.052, -0.16
70.057, 0.85
70.146, 0.85
70.258, 0.87
70.346, 0.83
70.354, -1.03
70.356, -1.17
70.450, -0.79
70.450, -0.75
70.457, 0.82
70.546, 0.79
70.649, -0.80
70.650, -0.60
70.658, 0.88
70.746, 0.86
70.851, -0.48
70.851, -0.46
70.857, 0.74
70.947, 0.74
70.951, -0.23
70.952, -0.36
70.953, -0.70
70.956, -1.13
71.049, -0.77
71.052, -0.26
71.057, 0.80
71.146, 0.78
71.152, -0.46
71.153, -0.66
71.155, -0.96
71.156, -1.17
71.250, -0.57
71.252, -0.31
71.258, 0.89
71.346, 0.89
71.355, -0.97
71.355, -1.08
71.457, 0.83
71.546, 0.86
71.554, -0.97
71.556, -1.17
71.651, -0.62
71.652, -0.35
71.657, 0.79
71.746, 0.81
71.849, -0.78
71.850, -0.57
71.858, 0.92
71.946, 0.77
71.952, -0.38
71.953, -0.67
72.057, 0.80
72.147, 0.74
72.249, -0.67
72.250, -0.52
72.257, 0.75
72.346, 0.93
72.352, -0.38
72.353, -0.64
72.355, -0.90
72.356, -1.12
72.457, 0.71
72.547, 0.72
72.553, -0.60
72.554, -1.00
72.649, -0.81
72.650, -0.61
72.657, 0.85
72.746, 0.79
72.753, -0.77
72.754, -0.99
72.850, -0.57
72.852, -0.26
72.857, 0.85
72.946, 0.81
73.057, 0.76
73.146, 0.75
73.152, -0.22
73.153, -0.62
73.257, 0.86
73.347, 0.74
73.457, 0.82
73.546, 0.85
73.553, -0.42
73.554, -0.92
73.649, -0.75
73.652, -0.31
73.657, 0.81
73.746, 0.81
73.753, -0.52
73.755, -1.12
73.849, -0.77
73.851, -0.61
73.857, 0.80
73.946, 0.82
73.951, -0.20
73.952, -0.38
73.955, -0.90
73.956, -1.14
74.057, 0.79
74.147, 0.72
74.153, -0.43
74.153, -0.68
74.257, 0.86
74.347, 0.69
74.351, -0.24
74.353, -0.63
74.355, -0.97
74.356, -1.14
74.450, -0.59
74.452, -0.22
74.457, 0.77
74.546, 0.78
74.552, -0.28
74.555, -1.17
74.656, 0.63
74.747, 0.74
74.751, -0.20
74.753, -0.64
74.755, -1.07
74.755, -1.13
74.850, -0.60
74.852, -0.32
74.857, 0.86
74.947, 0.71
74.954, -0.73
74.954, -0.88
75.050, -0.65
75.052, -0.27
75.057, 0.83
75.146, 0.92
75.152, -0.31
75.156, -1.14
75.249, -0.82
75.251, -0.55
75.257, 0.76
75.347, 0.72
75.352, -0.24
75.352, -0.39
75.353, -0.63
75.355, -0.97
75.457, 0.81
75.547, 0.72
75.553, -0.50
75.555, -1.07
75.650, -0.75
75.652, -0.23
75.656, 0.54
75.656, 0.68
75.658, 0.89
75.747, 0.71
75.752, -0.38
75.754, -0.98
75.754, -1.00
75.756, -1.09
75.850, -0.48
75.852, -0.29
75.857, 0.82
75.946, 0.87
75.952, -0.22
75.952, -0.38
75.954, -0.78
75.955, -0.96
76.051, -0.62
76.052, -0.32
76.057, 0.76
76.146, 0.94
76.152, -0.25
76.152, -0.32
76.154, -0.78
76.155, -0.93
76.257, 0.73
76.347, 0.71
76.352, -0.22
76.352, -0.38
76.353, -0.74
76.355, -0.91
76.457, 0.81
76.546, 0.75
76.552, -0.22
76.552, -0.37
76.553, -0.58
76.555, -1.03
76.649, -0.81
76.651, -0.58
76.656, 0.57
76.656, 0.61
76.657, 0.83
76.746, 0.85
76.753, -0.47
76.755, -0.98
76.858, 0.88
76.946, 0.81
76.953, -0.51
76.953, -0.70
76.954, -1.00
76.956, -1.13
77.052, -0.21
77.052, -0.20
77.057, 0.76
77.146, 0.86
77.152, -0.34
77.152, -0.37
77.155, -1.02
77.155, -1.07
77.250, -0.63
77.252, -0.33
77.257, 0.70
77.346, 0.83
77.352, -0.41
77.355, -0.99
77.450, -0.64
77.452, -0.33
77.456, 0.56
77.457, 0.73
77.457, 0.80
77.547, 0.74
77.652, -0.27
77.652, -0.15
77.657, 0.81
77.746, 0.77
77.850, -0.56
77.852, -0.26
77.857, 0.81
77.946, 0.78
77.954, -0.99
77.956, -1.07
78.052, -0.23
78.052, -0.22
78.057, 0.87
78.146, 0.86
78.152, -0.24
78.152, -0.38
78.153, -0.77
78.156, -1.18
78.250, -0.70
78.250, -0.57
78.252, -0.25
78.252, -0.17
78.257, 0.70
78.346, 0.87
78.353, -0.80
78.355, -1.01
78.457, 0.76
78.547, 0.67
78.553, -0.40
78.555, -1.14
78.651, -0.65
78.652, -0.19
78.657, 0.82
78.746, 0.77
78.752, -0.45
78.754, -0.82
78.755, -1.02
78.755, -1.02
78.857, 0.83
78.947, 0.72
78.952, -0.32
78.952, -0.41
78.955, -0.97
78.956, -1.18
79.049, -0.74
79.051, -0.62
79.057, 0.72
79.146, 0.80
79.152, -0.33
79.155, -1.01
79.257, 0.74
79.347, 0.72
79.352, -0.35
79.356, -1.15
79.451, -0.62
79.451, -0.44
79.457, 0.86
79.546, 0.83
79.555, -0.99
79.556, -1.18
79.657, 0.70
79.746, 0.78
79.752, -0.45
79.753, -0.78
79.755, -1.13
79.756, -1.14
79.850, -0.54
79.852, -0.32
79.857, 0.68
79.946, 0.86
79.952, -0.30
79.952, -0.37
79.954, -0.80
79.956, -1.13
80.049, -0.80
80.051, -0.63
80.057, 0.69
80.147, 0.65
80.153, -0.73
80.155, -0.97
80.156, -1.19
80.156, -1.20
80.250, -0.48
80.252, -0.23
80.257, 0.73
80.346, 0.75
80.353, -0.69
80.355, -1.04
80.449, -0.81
80.451, -0.50
80.456, 0.57
80.547, 0.74
80.552, -0.25
80.554, -0.82
80.657, 0.73
80.747, 0.67
80.752, -0.30
80.752, -0.41
80.753, -0.77
80.756, -1.17
80.849, -0.84
80.851, -0.57
80.857, 0.79
80.946, 0.79
80.955, -1.00
80.956, -1.17
80.957, -1.32
80.957, -1.33
81.049, -0.80
81.052, -0.37
81.056, 0.68
81.146, 0.78
81.151, -0.21
81.153, -0.55
81.251, -0.72
81.252, -0.39
81.257, 0.71
81.346, 0.85
81.452, -0.26
81.452, -0.16
81.458, 0.88
81.546, 0.76
81.552, -0.34
81.555, -1.00
81.650, -0.50
81.652, -0.22
81.657, 0.87
81.746, 0.77
81.756, -1.16
81.756, -1.16
81.857, 0.82
81.947, 0.71
81.953, -0.41
81.953, -0.53
81.955, -1.04
81.955, -1.10
82.057, 0.87
82.146, 0.92
82.155, -0.98
82.156, -1.14
82.256, 0.56
82.346, 0.86
82.352, -0.45
82.356, -1.12
82.449, -0.75
82.450, -0.55
82.457, 0.70
82.547, 0.70
82.552, -0.38
82.556, -1.11
82.650, -0.53
82.651, -0.41
82.657, 0.74
82.747, 0.65
82.752, -0.37
82.754, -0.79
82.852, -0.24
82.852, -0.21
82.857, 0.84
82.947, 0.74
82.952, -0.40
82.954, -0.86
83.049, -0.81
83.052, -0.27
83.056, 0.65
83.146, 0.80
83.151, -0.23
83.153, -0.70
83.155, -0.95
83.156, -1.13
83.249, -0.72
83.251, -0.60
83.256, 0.60
83.347, 0.74
83.351, -0.24
83.352, -0.39
83.354, -0.80
83.354, -0.92
83.452, -0.25
83.452, -0.22
83.456, 0.61
83.546, 0.83
83.651, -0.55
83.651, -0.39
83.657, 0.82
83.746, 0.84
83.752, -0.38
83.754, -0.90
83.857, 0.71
83.946, 0.76
83.953, -0.46
83.955, -0.96
84.049, -0.72
84.052, -0.27
84.057, 0.79
84.147, 0.66
84.151, -0.20
84.152, -0.38
84.154, -0.67
84.154, -0.85
84.250, -0.56
84.252, -0.24
84.257, 0.69
84.347, 0.73
84.354, -0.87
84.354, -0.96
84.451, -0.64
84.452, -0.39
84.456, 0.67
84.547, 0.74
84.552, -0.43
84.555, -1.05
84.649, -0.79
84.652, -0.38
84.656, 0.67
84.747, 0.68
84.751, -0.24
84.754, -0.93
84.850, -0.48
84.852, -0.30
84.857, 0.72
84.947, 0.73
85.057, 0.77
85.146, 0.85
85.155, -1.01
85.156, -1.12
85.257, 0.80
85.347, 0.73
85.352, -0.36
85.355, -1.03
85.449, -0.73
85.451, -0.56
85.457, 0.71
85.547, 0.64
85.554, -0.81
85.554, -0.94
85.657, 0.71
85.747, 0.67
85.753, -0.66
85.755, -1.09
85.857, 0.69
85.858, 0.97
85.858, 0.97
85.947, 0.69
85.953, -0.64
85.955, -0.98
86.057, 0.70
86.146, 0.85
86.151, -0.22
86.155, -1.05
86.250, -0.47
86.252, -0.27
86.257, 0.77
86.346, 0.90
86.457, 0.68
86.546, 0.89
86.553, -0.68
86.554, -0.95
86.657, 0.71
86.746, 0.87
86.754, -0.72
86.756, -1.11
86.849, -0.72
86.851, -0.51
86.857, 0.70
86.947, 0.73
86.953, -0.77
86.955, -1.04
87.050, -0.47
87.052, -0.25
87.057, 0.69
87.147, 0.73
87.153, -0.77
87.155, -1.06
87.251, -0.61
87.252, -0.27
87.257, 0.83
87.346, 0.78
87.353, -0.55
87.353, -0.63
87.355, -0.99
87.355, -1.05
87.457, 0.68
87.547, 0.74
87.551, -0.23
87.552, -0.38
87.553, -0.66
87.555, -1.02
87.656, 0.67
87.746, 0.76
87.755, -1.04
87.755, -1.06
87.857, 0.72
87.946, 0.87
87.955, -0.99
87.956, -1.11
88.049, -0.75
88.051, -0.60
88.057, 0.73
88.146, 0.76
88.151, -0.25
88.152, -0.40
88.257, 0.80
88.347, 0.71
88.353, -0.69
88.355, -1.04
88.449, -0.80
88.451, -0.41
88.457, 0.83
88.547, 0.67
88.553, -0.77
88.555, -1.05
88.650, -0.55
88.652, -0.28
88.657, 0.84
88.746, 0.79
88.755, -1.01
88.756, -1.10
88.851, -0.47
88.852, -0.31
88.857, 0.78
88.947, 0.74
88.952, -0.33
88.953, -0.80
89.057, 0.79
89.146, 0.75
89.152, -0.44
89.156, -1.11
89.250, -0.64
89.252, -0.25
89.257, 0.72
89.347, 0.73
89.352, -0.41
89.354, -0.82
89.355, -1.00
89.356, -1.10
89.449, -0.82
89.451, -0.61
89.457, 0.77
89.547, 0.74
89.554, -0.70
89.554, -0.99
89.657, 0.85
89.747, 0.73
89.752, -0.47
89.753, -0.64
89.850, -0.52
89.852, -0.28
89.857, 0.78
89.947, 0.73
90.049, -0.76
90.051, -0.34
90.057, 0.75
90.146, 0.77
90.151, -0.24
90.153, -0.77
90.257, 0.78
90.346, 0.78
90.450, -0.66
90.452, -0.28
90.457, 0.78
90.547, 0.67
90.551, -0.23
90.552, -0.37
90.657, 0.69
90.747, 0.63
90.752, -0.45
90.753, -0.79
90.857, 0.75
90.946, 0.77
90.951, -0.23
90.954, -0.86
91.050, -0.63
91.052, -0.30
91.057, 0.68
91.147, 0.69
91.153, -0.77
91.155, -1.12
91.257, 0.74
91.346, 0.75
91.352, -0.25
91.352, -0.39
91.451, -0.39
91.451, -0.33
91.457, 0.73
91.546, 0.78
91.553, -0.67
91.556, -1.12
91.649, -0.74
91.651, -0.57
91.657, 0.85
91.747, 0.74
91.857, 0.73
91.947, 0.74
91.952, -0.44
91.954, -0.82
91.955, -1.01
91.956, -1.13
92.050, -0.52
92.052, -0.28
92.057, 0.67
92.146, 0.89
92.152, -0.38
92.153, -0.76
92.250, -0.61
92.252, -0.29
92.257, 0.73
92.347, 0.71
92.355, -0.95
92.356, -1.11
92.457, 0.77
92.547, 0.74
92.553, -0.72
92.555, -1.06
92.651, -0.42
92.651, -0.37
92.657, 0.77
92.747, 0.72
92.752, -0.24
92.754, -0.96
92.754, -0.98
92.755, -1.00
92.857, 0.79
92.947, 0.68
92.952, -0.41
92.953, -0.79
92.955, -0.98
92.955, -1.01
93.049, -0.75
93.051, -0.55
93.057, 0.70
93.147, 0.66
93.152, -0.29
93.153, -0.82
93.257, 0.72
93.347, 0.65
93.353, -0.49
93.355, -0.97
93.457, 0.86
93.547, 0.74
93.553, -0.65
93.555, -1.06
93.651, -0.65
93.652, -0.22
93.657, 0.69
93.747, 0.70
93.751, -0.20
93.752, -0.37
93.754, -0.72
93.755, -1.00
93.857, 0.74
93.946, 0.80
93.953, -0.73
93.955, -1.01
94.050, -0.53
94.052, -0.35
94.057, 0.83
94.147, 0.63
94.152, -0.34
94.154, -0.87
94.257, 0.77
94.347, 0.73
94.352, -0.26
94.352, -0.35
94.353, -0.74
94.356, -1.12
94.450, -0.55
94.452, -0.29
94.457, 0.74
94.546, 0.79
94.553, -0.46
94.553, -0.65
94.651, -0.61
94.652, -0.38
94.657, 0.76
94.746, 0.79
94.755, -1.03
94.756, -1.11
94.851, -0.46
94.851, -0.37
94.857, 0.81
94.947, 0.73
94.952, -0.34
94.954, -0.89
95.049, -0.74
95.051, -0.51
95.057, 0.69
95.146, 0.75
95.152, -0.32
95.152, -0.34
95.257, 0.76
95.346, 0.80
95.449, -0.72
95.452, -0.25
95.456, 0.67
95.546, 0.77
95.552, -0.46
95.555, -1.07
95.657, 0.81
95.746, 0.82
95.751, -0.22
95.752, -0.43
95.755, -1.02
95.756, -1.10
95.849, -0.81
95.852, -0.20
95.857, 0.70
95.947, 0.71
96.057, 0.83
96.147, 0.74
96.153, -0.69
96.154, -0.99
96.250, -0.67
96.250, -0.61
96.252, -0.26
96.252, -0.17
96.257, 0.75
96.347, 0.74
96.355, -0.99
96.355, -1.05
96.457, 0.75
96.547, 0.69
96.649, -0.75
96.650, -0.54
96.657, 0.71
96.747, 0.65
96.752, -0.43
96.753, -0.73
96.857, 0.74
96.946, 0.82
96.952, -0.27
96.955, -0.99
97.049, -0.73
97.051, -0.60
97.057, 0.79
97.147, 0.69
97.250, -0.61
97.252, -0.27
97.257, 0.73
97.347, 0.74
97.352, -0.45
97.356, -1.11
97.457, 0.76
97.547, 0.68
97.649, -0.77
97.651, -0.51
97.657, 0.79
97.747, 0.72
97.755, -1.01
97.756, -1.13
97.850, -0.58
97.852, -0.25
97.857, 0.72
97.947, 0.65
97.952, -0.36
97.955, -1.06
98.049, -0.78
98.052, -0.31
98.057, 0.72
98.147, 0.62
98.257, 0.69
98.347, 0.65
98.352, -0.32
98.355, -0.94
98.457, 0.80
98.547, 0.64
98.553, -0.62
98.554, -0.89
98.650, -0.59
98.652, -0.26
98.657, 0.71
98.746, 0.76
98.851, -0.49
98.851, -0.41
98.857, 0.70
98.947, 0.74
98.954, -0.74
98.954, -0.92
99.056, 0.66
99.146, 0.77
99.152, -0.46
99.154, -0.97
99.257, 0.72
99.346, 0.81
99.354, -0.88
99.356, -1.09
99.452, -0.26
99.452, -0.15
99.457, 0.79
99.546, 0.81
99.553, -0.66
99.554, -0.89
99.650, -0.67
99.650, -0.56
99.657, 0.80
99.747, 0.68
99.754, -0.81
99.756, -1.10
99.857, 0.72
99.946, 0.80
99.951, -0.22
99.952, -0.44
100.057, 0.72
100.147, 0.67
100.152, -0.33
100.154, -0.85
100.257, 0.72
100.347, 0.68
100.353, -0.71
100.355, -1.02
100.457, 0.74
100.547, 0.75
100.552, -0.40
100.554, -0.90
100.657, 0.73
100.747, 0.71
100.752, -0.25
100.756, -1.08
100.850, -0.51
100.852, -0.27
100.857, 0.82
100.947, 0.71
101.057, 0.72
101.147, 0.65
101.153, -0.69
101.155, -0.98
101.252, -0.26
101.252, -0.17
101.257, 0.72
101.347, 0.62
101.351, -0.24
101.352, -0.43
101.354, -0.77
101.356, -1.10
101.451, -0.52
101.451, -0.41
101.457, 0.77
101.547, 0.72
101.554, -0.87
101.554, -0.88
101.656, 0.59
101.747, 0.74
101.752, -0.38
101.753, -0.66
101.755, -0.94
101.756, -1.11
101.849, -0.74
101.850, -0.55
101.857, 0.74
101.946, 0.77
101.952, -0.36
101.953, -0.67
102.057, 0.69
102.147, 0.72
102.152, -0.46
102.153, -0.80
102.155, -0.97
102.156, -1.11
102.257, 0.69
102.347, 0.72
102.451, -0.43
102.451, -0.32
102.457, 0.70
102.547, 0.62
102.552, -0.39
102.553, -0.61
102.650, -0.49
102.652, -0.24
102.657, 0.68
102.747, 0.75
102.753, -0.48
102.754, -0.94
102.849, -0.74
102.850, -0.59
102.857, 0.79
102.947, 0.73
102.952, -0.44
102.956, -1.12
103.050, -0.48
103.052, -0.28
103.057, 0.71
103.146, 0.77
103.155, -0.89
103.156, -1.11
103.257, 0.74
103.347, 0.69
103.351, -0.22
103.354, -0.90
103.456, 0.65
103.547, 0.64
103.552, -0.42
103.553, -0.65
103.650, -0.63
103.652, -0.32
103.657, 0.67
103.746, 0.79
103.753, -0.74
103.756, -1.12
103.851, -0.45
103.851, -0.33
103.857, 0.79
103.947, 0.74
104.057, 0.68
104.146, 0.77
104.154, -0.83
104.156, -1.14
104.251, -0.57
104.252, -0.35
104.257, 0.72
104.347, 0.63
104.355, -0.94
104.355, -1.07
104.457, 0.81
104.547, 0.75
104.551, -0.24
104.553, -0.63
104.650, -0.50
104.652, -0.28
104.656, 0.67
104.747, 0.67
104.752, -0.46
104.754, -0.90
104.850, -0.68
104.852, -0.30
104.857, 0.80
104.946, 0.76
104.951, -0.23
104.952, -0.40
104.955, -0.91
104.956, -1.09
105.051, -0.67
105.052, -0.35
105.057, 0.68
105.147, 0.70
105.250, -0.49
105.252, -0.23
105.257, 0.68
105.347, 0.68
105.353, -0.64
105.355, -1.07
105.456, 0.67
105.547, 0.63
105.553, -0.55
105.553, -0.68
105.650, -0.52
105.652, -0.25
105.656, 0.64
105.747, 0.71
105.752, -0.51
105.754, -0.89
105.754, -0.98
105.756, -1.11
105.849, -0.78
105.851, -0.51
105.857, 0.69
105.947, 0.61
106.057, 0.79
106.147, 0.70
106.152, -0.35
106.156, -1.11
106.249, -0.72
106.251, -0.46
106.257, 0.68
106.347, 0.74
106.457, 0.68
106.547, 0.68
106.553, -0.48
106.553, -0.60
106.656, 0.62
106.747, 0.71
106.851, -0.44
106.851, -0.32
106.856, 0.65
106.947, 0.74
106.952, -0.54
106.954, -0.86
106.954, -1.02
106.956, -1.13
107.051, -0.55
107.051, -0.38
107.056, 0.65
107.147, 0.72
107.153, -0.59
107.153, -0.61
107.154, -0.84
107.156, -1.12
107.256, 0.61
107.347, 0.73
107.457, 0.71
107.547, 0.66
107.552, -0.46
107.553, -0.68
107.657, 0.70
107.747, 0.64
107.752, -0.34
107.753, -0.70
107.850, -0.60
107.852, -0.31
107.856, 0.63
107.947, 0.72
108.057, 0.78
108.147, 0.66
108.151, -0.22
108.154, -0.68
108.257, 0.70
108.347, 0.63
108.451, -0.61
108.452, -0.31
108.457, 0.74
108.547, 0.70
108.657, 0.78
108.747, 0.66
108.857, 0.69
108.947, 0.68
108.952, -0.50
108.953, -0.71
109.049, -0.69
109.052, -0.28
109.057, 0.68
109.147, 0.71
109.151, -0.24
109.152, -0.46
109.155, -0.98
109.156, -1.13
109.251, -0.44
109.252, -0.28
109.257, 0.72
109.347, 0.63
109.353, -0.64
109.355, -1.03
109.457, 0.72
109.547, 0.70
109.657, 0.68
109.747, 0.64
109.753, -0.68
109.755, -1.13
109.857, 0.73
109.947, 0.70
110.057, 0.71
110.147, 0.62
110.151, -0.22
110.152, -0.39
110.153, -0.69
110.154, -1.02
110.250, -0.52
110.252, -0.27
110.257, 0.71
110.347, 0.64
110.353, -0.76
110.354, -0.95
110.449, -0.77
110.451, -0.47
110.456, 0.65
110.547, 0.56
110.552, -0.36
110.552, -0.46
110.656, 0.67
110.746, 0.80
110.753, -0.61
110.755, -1.14
110.850, -0.51
110.852, -0.34
110.856, 0.67
110.947, 0.69
110.954, -0.81
110.956, -1.15
111.049, -0.74
111.052, -0.33
111.057, 0.80
111.146, 0.77
111.153, -0.80
111.155, -1.05
111.250, -0.56
111.252, -0.23
111.257, 0.78
111.348, 0.54
111.352, -0.24
111.352, -0.39
111.353, -0.74
111.356, -1.15
111.449, -0.78
111.451, -0.52
111.457, 0.70
111.547, 0.66
111.552, -0.44
111.553, -0.65
111.555, -0.90
111.556, -1.08
111.657, 0.73
111.747, 0.57
111.857, 0.72
111.947, 0.68
112.057, 0.73
112.147, 0.64
112.153, -0.45
112.153, -0.63
112.250, -0.67
112.252, -0.36
112.257, 0.75
112.347, 0.56
112.353, -0.57
112.353, -0.62
112.355, -0.95
112.355, -1.05
112.456, 0.64
112.547, 0.74
112.552, -0.44
112.555, -0.93
112.657, 0.79
112.746, 0.78
112.753, -0.48
112.754, -1.03
112.857, 0.67
112.947, 0.67
112.955, -1.07
112.956, -1.16
113.050, -0.47
113.052, -0.27
113.057, 0.68
113.147, 0.58
113.153, -0.45
113.153, -0.61
113.257, 0.71
113.347, 0.71
113.449, -0.79
113.451, -0.56
113.457, 0.71
113.547, 0.61
113.552, -0.36
113.553, -0.72
113.649, -0.75
113.652, -0.35
113.656, 0.66
113.747, 0.58
113.753, -0.73
113.754, -1.03
113.851, -0.57
113.851, -0.37
113.856, 0.67
113.947, 0.59
113.952, -0.40
113.953, -0.66
113.955, -0.93
113.956, -1.08
114.057, 0.72
114.147, 0.65
114.154, -0.90
114.156, -1.14
114.256, 0.64
114.347, 0.56
114.351, -0.24
114.352, -0.39
114.355, -1.07
114.355, -1.14
114.449, -0.77
114.451, -0.59
114.452, -0.26
114.452, -0.20
114.456, 0.57
114.547, 0.64
114.552, -0.46
114.553, -0.68
114.555, -0.89
114.556, -1.11
114.657, 0.74
114.747, 0.56
114.753, -0.63
114.755, -1.04
114.856, 0.53
114.947, 0.67
114.955, -0.90
114.956, -1.13
115.047, -1.20
115.047, -1.18
115.050, -0.60
115.050, -0.59
115.056, 0.63
115.147, 0.59
115.152, -0.44
115.154, -0.88
115.257, 0.78
115.347, 0.57
115.351, -0.21
115.353, -0.63
115.457, 0.69
115.546, 0.77
115.554, -0.91
115.554, -1.04
115.650, -0.67
115.652, -0.33
115.656, 0.66
115.748, 0.55
115.751, -0.24
115.752, -0.38
115.755, -0.99
115.756, -1.08
115.856, 0.66
115.947, 0.59
115.955, -1.02
115.955, -1.06
116.056, 0.64
116.147, 0.57
116.250, -0.59
116.252, -0.30
116.257, 0.68
116.348, 0.55
116.352, -0.43
116.355, -1.00
116.450, -0.52
116.452, -0.26
116.456, 0.57
116.547, 0.57
116.555, -0.94
116.556, -1.12
116.657, 0.71
116.747, 0.71
116.753, -0.53
116.755, -1.03
116.856, 0.65
116.947, 0.58
116.952, -0.25
116.953, -0.74
116.955, -1.03
116.955, -1.10
117.050, -0.55
117.051, -0.33
117.056, 0.60
117.148, 0.53
117.251, -0.42
117.251, -0.37
117.256, 0.67
117.348, 0.52
117.456, 0.67
117.547, 0.66
117.555, -1.04
117.556, -1.11
117.656, 0.63
117.747, 0.57
117.752, -0.42
117.755, -1.06
117.851, -0.64
117.852, -0.35
117.856, 0.64
117.948, 0.52
117.952, -0.25
117.952, -0.41
118.057, 0.68
118.147, 0.70
118.154, -0.77
118.155, -1.03
118.256, 0.57
118.348, 0.55
118.354, -0.79
118.354, -1.00
118.456, 0.66
118.548, 0.49
118.552, -0.41
118.554, -0.99
118.651, -0.46
118.651, -0.33
118.656, 0.65
118.747, 0.69
118.751, -0.23
118.752, -0.48
118.753, -0.75
118.755, -1.07
118.856, 0.67
118.948, 0.55
118.952, -0.25
118.952, -0.43
118.954, -0.80
118.954, -0.97
119.056, 0.55
119.148, 0.51
119.152, -0.34
119.154, -0.90
119.154, -0.97
119.156, -1.13
119.247, -1.20
119.247, -1.20
119.249, -0.75
119.252, -0.37
119.256, 0.66
119.347, 0.61
119.457, 0.68
119.548, 0.53
119.551, -0.25
119.552, -0.45
119.553, -0.64
119.556, -1.09
119.657, 0.76
119.747, 0.68
119.748, 0.48
119.748, 0.46
119.849, -0.76
119.850, -0.57
119.857, 0.69
119.947, 0.70
119.954, -0.77
119.956, -1.12
120.056, 0.66
120.147, 0.69
120.155, -0.97
120.156, -1.12
120.256, 0.59
120.347, 0.56
120.352, -0.34
120.356, -1.14
120.456, 0.55
120.548, 0.55
120.553, -0.74
120.555, -0.88
120.651, -0.50
120.651, -0.31
120.657, 0.69
120.747, 0.65
120.753, -0.45
120.754, -0.92
120.857, 0.72
120.948, 0.51
120.955, -0.94
120.956, -1.10
121.057, 0.73
121.147, 0.64
121.152, -0.47
121.153, -0.68
121.155, -0.94
121.155, -1.08
121.256, 0.60
121.346, 0.75
121.352, -0.25
121.352, -0.39
121.354, -0.75
121.354, -0.98
121.456, 0.55
121.548, 0.54
121.650, -0.49
121.652, -0.30
121.656, 0.64
121.748, 0.45
121.754, -0.99
121.756, -1.13
121.850, -0.56
121.852, -0.29
121.856, 0.60
121.948, 0.53
121.951, -0.25
121.954, -0.91
122.056, 0.57
122.147, 0.68
122.152, -0.48
122.155, -1.05
122.256, 0.54
122.346, 0.76
122.355, -1.01
122.356, -1.13
122.450, -0.48
122.452, -0.24
122.456, 0.64
122.548, 0.52
122.657, 0.69
122.747, 0.61
122.753, -0.64
122.755, -0.94
122.856, 0.64
122.947, 0.66
122.952, -0.41
122.956, -1.12
123.056, 0.56
123.148, 0.54
123.152, -0.41
123.153, -0.67
123.155, -0.89
123.156, -1.13
123.256, 0.54
123.348, 0.44
123.353, -0.71
123.355, -1.09
123.449, -0.80
123.452, -0.31
123.456, 0.66
123.547, 0.61
123.552, -0.36
123.552, -0.38
123.553, -0.68
123.555, -1.06
123.656, 0.58
123.748, 0.52
123.752, -0.27
123.752, -0.41
123.754, -0.91
123.756, -1.09
123.850, -0.51
123.852, -0.26
123.857, 0.69
123.948, 0.53
123.954, -1.02
123.956, -1.14
124.051, -0.61
124.052, -0.28
124.056, 0.61
124.148, 0.47
124.249, -0.76
124.250, -0.55
124.256, 0.67
124.347, 0.58
124.352, -0.41
124.353, -0.65
124.355, -0.98
124.355, -1.08
124.450, -0.58
124.452, -0.29
124.456, 0.53
124.548, 0.52
124.553, -0.69
124.555, -1.01
124.657, 0.70
124.747, 0.68
124.754, -0.99
124.754, -1.05
124.857, 0.68
124.947, 0.56
124.952, -0.37
124.953, -0.69
125.050, -0.62
125.052, -0.24
125.056, 0.55
125.148, 0.54
125.152, -0.25
125.153, -0.54
125.153, -0.63
125.156, -1.12
125.256, 0.67
125.348, 0.52
125.355, -1.05
125.355, -1.11
125.451, -0.43
125.451, -0.37
125.456, 0.61
125.548, 0.54
125.656, 0.58
125.748, 0.55
125.851, -0.48
125.851, -0.30
125.856, 0.61
125.948, 0.55
125.952, -0.44
125.953, -0.62
126.051, -0.60
126.051, -0.45
126.057, 0.70
126.148, 0.53
126.152, -0.43
126.154, -1.00
126.256, 0.66
126.348, 0.51
126.351, -0.23
126.352, -0.40
126.449, -0.80
126.451, -0.52
126.456, 0.61
126.547, 0.59
126.552, -0.41
126.555, -1.00
126.650, -0.56
126.652, -0.27
126.656, 0.55
126.748, 0.52
126.851, -0.65
126.852, -0.38
126.856, 0.63
126.947, 0.74
126.953, -0.61
126.955, -1.01
127.056, 0.59
127.147, 0.63
127.154, -0.94
127.156, -1.11
127.249, -0.80
127.251, -0.49
127.256, 0.57
127.347, 0.62
127.352, -0.40
127.356, -1.13
127.450, -0.50
127.452, -0.26
127.456, 0.65
127.547, 0.57
127.553, -0.55
127.553, -0.62
127.555, -1.00
127.556, -1.10
127.649, -0.78
127.652, -0.30
127.656, 0.61
127.747, 0.57
127.752, -0.31
127.752, -0.41
127.755, -1.08
127.756, -1.16
127.857, 0.70
127.947, 0.59
127.955, -1.03
127.955, -1.10
128.049, -0.75
128.051, -0.52
128.056, 0.52
128.147, 0.58
128.152, -0.43
128.153, -0.66
128.155, -1.01
128.156, -1.16
128.257, 0.70
128.347, 0.67
128.354, -1.02
128.356, -1.10
128.450, -0.48
128.452, -0.27
128.457, 0.71
128.547, 0.58
128.553, -0.47
128.554, -0.97
128.656, 0.58
128.747, 0.70
128.751, -0.23
128.755, -1.00
128.857, 0.70
128.947, 0.66
128.952, -0.24
128.954, -0.97
129.049, -0.80
129.052, -0.36
129.057, 0.79
129.147, 0.66
129.151, -0.25
129.156, -1.13
129.250, -0.48
129.252, -0.27
129.256, 0.64
129.348, 0.51
129.354, -0.79
129.354, -0.93
129.449, -0.73
129.451, -0.46
129.452, -0.25
129.452, -0.21
129.456, 0.57
129.547, 0.66
129.553, -0.58
129.554, -0.83
129.650, -0.64
129.652, -0.33
129.656, 0.67
129.748, 0.55
129.752, -0.41
129.754, -0.90
129.754, -1.04
129.756, -1.12
129.856, 0.54
129.948, 0.52
129.951, -0.23
129.952, -0.35
129.954, -0.96
129.956, -1.12
130.049, -0.72
130.052, -0.37
130.056, 0.56
130.148, 0.52
130.152, -0.50
130.155, -1.04
130.257, 0.68
130.348, 0.45
130.448, -1.01
130.448, -1.00
130.457, 0.68
130.547, 0.67
130.553, -0.68
130.555, -1.07
130.651, -0.59
130.651, -0.45
130.657, 0.71
130.747, 0.63
130.752, -0.25
130.752, -0.44
130.754, -0.84
130.754, -0.93
130.849, -0.76
130.851, -0.50
130.856, 0.52
130.948, 0.49
131.051, -0.63
131.052, -0.34
131.056, 0.57
131.147, 0.64
131.250, -0.59
131.252, -0.28
131.256, 0.63
131.347, 0.62
131.354, -0.73
131.355, -1.01
131.456, 0.56
131.547, 0.57
131.553, -0.54
131.553, -0.72
131.555, -0.92
131.556, -1.13
131.650, -0.50
131.652, -0.29
131.657, 0.78
131.748, 0.55
131.752, -0.41
131.754, -0.92
131.856, 0.63
131.947, 0.58
131.952, -0.32
131.952, -0.39
132.057, 0.69
132.148, 0.51
132.154, -0.77
132.155, -1.00
132.256, 0.62
132.347, 0.64
132.448, -1.03
132.448, -0.97
132.456, 0.63
132.547, 0.62
132.554, -0.85
132.555, -1.03
132.656, 0.64
132.747, 0.58
132.752, -0.43
132.755, -0.99
132.851, -0.69
132.852, -0.37
132.856, 0.54
132.947, 0.61
133.051, -0.42
133.051, -0.37
133.056, 0.65
133.147, 0.57
133.152, -0.26
133.153, -0.81
133.251, -0.55
133.252, -0.31
133.256, 0.59
133.348, 0.52
133.456, 0.66
133.547, 0.68
133.553, -0.66
133.555, -0.98
133.656, 0.64
133.748, 0.47
133.753, -0.44
133.753, -0.63
133.755, -0.87
133.756, -1.12
133.850, -0.54
133.852, -0.29
133.857, 0.70
133.947, 0.62
133.952, -0.44
133.956, -1.12
134.051, -0.43
134.051, -0.34
134.057, 0.72
134.146, 0.78
134.151, -0.22
134.152, -0.37
134.153, -0.68
134.155, -1.04
134.250, -0.70
134.250, -0.65
134.257, 0.68
134.347, 0.56
134.456, 0.65
134.547, 0.71
134.547, 0.56
134.548, 0.41
134.552, -0.29
134.552, -0.43
134.554, -0.86
134.556, -1.11
134.649, -0.73
134.651, -0.50
134.656, 0.61
134.747, 0.68
134.752, -0.40
134.754, -0.91
134.754, -0.94
134.756, -1.14
134.850, -0.55
134.852, -0.24
134.856, 0.65
134.947, 0.63
134.953, -0.65
134.955, -1.04
135.049, -0.80
135.052, -0.33
135.056, 0.62
135.147, 0.59
135.152, -0.38
135.153, -0.64
135.250, -0.65
135.252, -0.31
135.256, 0.56
135.347, 0.65
135.354, -0.95
135.356, -1.10
135.451, -0.61
135.452, -0.38
135.456, 0.65
135.547, 0.59
135.552, -0.27
135.553, -0.69
135.555, -0.92
135.556, -1.15
135.650, -0.49
135.652, -0.25
135.656, 0.65
135.748, 0.42
135.754, -0.77
135.756, -1.11
135.856, 0.58
135.947, 0.56
135.952, -0.36
135.953, -0.59
136.056, 0.61
136.147, 0.67
136.155, -0.87
136.156, -1.12
136.251, -0.55
136.252, -0.34
136.256, 0.60
136.347, 0.58
136.352, -0.41
136.354, -0.91
136.355, -1.03
136.355, -1.06
136.449, -0.69
136.451, -0.49
136.452, -0.28
136.452, -0.21
136.456, 0.65
136.547, 0.61
136.656, 0.53
136.747, 0.68
136.751, -0.21
136.752, -0.42
136.753, -0.76
136.755, -0.93
136.849, -0.72
136.851, -0.46
136.856, 0.64
136.947, 0.59
136.952, -0.36
136.956, -1.10
137.049, -0.79
137.051, -0.50
137.056, 0.67
137.147, 0.74
137.153, -0.47
137.154, -1.03
137.154, -1.04
137.155, -1.08
137.249, -0.85
137.251, -0.55
137.257, 0.69
137.347, 0.71
137.351, -0.24
137.352, -0.42
137.353, -0.70
137.355, -1.00
137.456, 0.59
137.547, 0.64
137.555, -1.01
137.556, -1.12
137.650, -0.63
137.652, -0.24
137.657, 0.71
137.748, 0.53
137.752, -0.44
137.753, -0.65
137.755, -0.88
137.756, -1.09
137.851, -0.52
137.851, -0.41
137.856, 0.53
137.947, 0.61
137.953, -0.68
137.955, -0.98
138.049, -0.83
138.052, -0.27
138.056, 0.60
138.147, 0.66
138.152, -0.36
138.153, -0.74
138.251, -0.55
138.252, -0.28
138.256, 0.54
138.347, 0.60
138.353, -0.73
138.355, -1.05
138.457, 0.78
138.547, 0.60
138.554, -0.78
138.554, -0.97
138.656, 0.64
138.748, 0.45
138.752, -0.24
138.753, -0.55
138.755, -0.99
138.756, -1.14
138.850, -0.52
138.852, -0.28
138.856, 0.63
138.947, 0.64
138.952, -0.44
138.954, -0.73
138.955, -1.01
138.955, -1.08
139.051, -0.62
139.052, -0.36
139.056, 0.61
139.147, 0.65
139.152, -0.24
139.154, -0.92
139.154, -0.98
139.156, -1.12
139.256, 0.62
139.347, 0.65
139.352, -0.38
139.356, -1.13
139.449, -0.70
139.451, -0.58
139.456, 0.64
139.547, 0.71
139.553, -0.70
139.556, -1.10
139.650, -0.50
139.652, -0.27
139.656, 0.67
139.747, 0.59
139.754, -0.93
139.756, -1.07
139.849, -0.70
139.852, -0.24
139.856, 0.64
139.947, 0.59
139.951, -0.24
139.953, -0.53
140.048, -1.02
140.048, -0.98
140.051, -0.60
140.052, -0.30
140.057, 0.68
140.147, 0.72
140.251, -0.54
140.252, -0.38
140.257, 0.72
140.347, 0.67
140.348, 0.53
140.348, 0.44
140.352, -0.22
140.352, -0.36
140.354, -0.82
140.354, -0.96
140.456, 0.64
140.548, 0.41
140.553, -0.52
140.553, -0.70
140.649, -0.79
140.651, -0.61
140.656, 0.55
140.747, 0.62
140.752, -0.43
140.753, -0.63
140.755, -0.87
140.756, -1.13
140.849, -0.77
140.851, -0.47
140.852, -0.24
140.852, -0.17
140.857, 0.72
140.947, 0.59
141.049, -0.72
141.051, -0.48
141.056, 0.56
141.147, 0.61
141.250, -0.49
141.252, -0.25
141.256, 0.60
141.347, 0.67
141.351, -0.21
141.352, -0.47
141.355, -0.92
141.356, -1.07
141.456, 0.57
141.548, 0.53
141.553, -0.59
141.553, -0.61
141.649, -0.82
141.652, -0.30
141.656, 0.56
141.747, 0.68
141.752, -0.23
141.753, -0.67
141.849, -0.71
141.852, -0.27
141.856, 0.62
141.947, 0.62
142.049, -0.76
142.050, -0.55
142.057, 0.78
142.147, 0.67
142.151, -0.22
142.152, -0.38
142.154, -0.72
142.155, -1.04
142.249, -0.72
142.252, -0.31
142.257, 0.68
142.348, 0.55
142.354, -0.84
142.354, -1.00
142.457, 0.70
142.548, 0.55
142.650, -0.71
142.651, -0.52
142.656, 0.66
142.747, 0.71
142.748, 0.48
142.748, 0.45
142.752, -0.27
142.752, -0.41
142.754, -1.02
142.756, -1.12
142.851, -0.62
142.851, -0.47
142.856, 0.67
142.947, 0.57
142.951, -0.25
142.953, -0.64
143.056, 0.63
143.147, 0.70
143.153, -0.67
143.155, -1.03
143.256, 0.67
143.348, 0.45
143.351, -0.24
143.353, -0.74
143.355, -0.94
143.356, -1.11
143.449, -0.78
143.452, -0.36
143.456, 0.59
143.547, 0.61
143.552, -0.26
143.552, -0.41
143.656, 0.65
143.748, 0.48
143.752, -0.28
143.752, -0.40
143.856, 0.55
143.947, 0.55
143.952, -0.27
143.953, -0.61
144.051, -0.61
144.052, -0.27
144.056, 0.67
144.147, 0.60
144.155, -1.00
144.156, -1.12
144.248, -1.01
144.248, -0.98
144.249, -0.83
144.252, -0.28
144.256, 0.63
144.348, 0.44
144.352, -0.38
144.356, -1.09
144.456, 0.56
144.547, 0.65
144.552, -0.44
144.554, -0.90
144.656, 0.53
144.657, 0.73
144.657, 0.79
144.747, 0.70
144.754, -0.88
144.756, -1.12
144.850, -0.60
144.852, -0.26
144.856, 0.65
144.947, 0.63
144.952, -0.26
144.952, -0.40
144.953, -0.80
144.955, -1.09
145.056, 0.53
145.148, 0.49
145.250, -0.52
145.252, -0.28
145.256, 0.51
145.347, 0.59
145.351, -0.20
145.352, -0.38
145.354, -0.91
145.356, -1.10
145.456, 0.56
145.547, 0.59
145.554, -0.92
145.555, -1.08
145.656, 0.62
145.748, 0.52
145.856, 0.67
145.948, 0.48
145.954, -0.72
145.955, -1.07
146.056, 0.65
146.147, 0.60
146.152, -0.25
146.153, -0.68
146.250, -0.64
146.252, -0.24
146.257, 0.70
146.347, 0.56
146.352, -0.25
146.352, -0.39
146.451, -0.45
146.451, -0.31
146.456, 0.59
146.548, 0.50
146.552, -0.46
146.555, -1.06
146.650, -0.58
146.652, -0.29
146.656, 0.61
146.747, 0.57
146.751, -0.21
146.752, -0.40
146.753, -0.67
146.754, -0.98
146.856, 0.57
146.947, 0.60
146.951, -0.23
146.954, -0.80
146.955, -1.05
146.956, -1.15
147.049, -0.73
147.052, -0.33
147.056, 0.62
147.147, 0.72
147.153, -0.73
147.155, -1.11
147.256, 0.64
147.347, 0.68
147.351, -0.23
147.354, -0.74
147.355, -0.94
147.356, -1.08
147.450, -0.57
147.452, -0.27
147.456, 0.65
147.547, 0.70
147.553, -0.52
147.554, -0.92
147.656, 0.60
147.748, 0.43
147.753, -0.82
147.754, -1.05
147.849, -0.81
147.852, -0.31
147.856, 0.63
147.948, 0.52
147.954, -0.83
147.956, -1.11
148.056, 0.59
148.148, 0.55
148.153, -0.64
148.154, -0.97
148.257, 0.71
148.348, 0.52
148.355, -0.90
148.356, -1.10
148.450, -0.57
148.452, -0.24
148.456, 0.64
148.548, 0.54
148.551, -0.25
148.552, -0.44
148.554, -0.88
148.556, -1.12
148.656, 0.64
148.747, 0.72
148.754, -1.05
148.756, -1.09
148.856, 0.61
148.948, 0.42
148.954, -0.78
148.956, -1.13
149.050, -0.49
149.052, -0.27
149.057, 0.69
149.147, 0.58
149.250, -0.56
149.252, -0.27
149.256, 0.64
149.348, 0.52
149.354, -0.95
149.356, -1.15
149.456, 0.57
149.548, 0.55
149.551, -0.23
149.553, -0.61
149.555, -1.03
149.556, -1.13
149.649, -0.77
149.651, -0.43
149.656, 0.57
149.747, 0.69
149.752, -0.47
149.754, -0.79
149.856, 0.65
149.948, 0.42
150.047, -1.18
150.047, -1.17
150.051, -0.53
150.052, -0.31
150.056, 0.50
150.147, 0.62
150.151, -0.23
150.154, -1.02
150.249, -0.78
150.252, -0.31
150.256, 0.61
150.347, 0.57
150.451, -0.61
150.451, -0.59
150.456, 0.63
150.547, 0.68
150.552, -0.31
150.552, -0.38
150.553, -0.66
150.555, -1.10
150.656, 0.62
150.747, 0.73
150.751, -0.24
150.752, -0.43
150.754, -1.04
150.756, -1.11
150.856, 0.59
150.948, 0.53
150.952, -0.25
150.952, -0.43
151.057, 0.80
151.147, 0.67
151.153, -0.52
151.153, -0.58
151.250, -0.56
151.252, -0.33
151.256, 0.61
151.348, 0.45
151.353, -0.69
151.355, -1.01
151.450, -0.60
151.452, -0.31
151.456, 0.66
151.547, 0.72
151.555, -0.98
151.556, -1.09
151.656, 0.57
151.747, 0.57
151.856, 0.65
151.947, 0.73
151.952, -0.50
151.953, -0.69
152.056, 0.58
152.147, 0.56
152.153, -0.51
152.153, -0.59
152.155, -0.95
152.156, -1.05
152.256, 0.57
152.347, 0.70
152.354, -0.74
152.356, -1.11
152.449, -0.75
152.452, -0.30
152.456, 0.64
152.547, 0.63
152.555, -0.92
152.556, -1.15
152.656, 0.62
152.748, 0.54
152.755, -0.91
152.756, -1.11
152.856, 0.50
152.947, 0.56
152.954, -0.93
152.954, -1.05
153.056, 0.65
153.147, 0.58
153.155, -1.01
153.156, -1.11
153.250, -0.58
153.252, -0.28
153.256, 0.63
153.348, 0.54
153.352, -0.27
153.352, -0.38
153.457, 0.73
153.547, 0.59
153.552, -0.43
153.554, -0.67
153.555, -1.04
153.556, -1.12
153.650, -0.61
153.652, -0.32
153.656, 0.54
153.657, 0.72
153.657, 0.79
153.747, 0.59
153.852, -0.24
153.852, -0.23
153.857, 0.68
153.948, 0.54
153.955, -0.99
153.956, -1.14
154.051, -0.47
154.052, -0.25
154.056, 0.57
154.147, 0.57
154.153, -0.47
154.153, -0.55
154.155, -1.10
154.155, -1.10
154.250, -0.47
154.252, -0.26
154.257, 0.68
154.347, 0.60
154.457, 0.69
154.547, 0.73
154.553, -0.75
154.556, -1.14
154.656, 0.53
154.748, 0.52
154.751, -0.25
154.752, -0.42
154.753, -0.71
154.755, -1.00
154.849, -0.77
154.852, -0.31
154.856, 0.53
154.947, 0.63
154.951, -0.21
154.954, -0.84
154.955, -1.04
154.956, -1.12
155.056, 0.57
155.147, 0.70
155.155, -1.02
155.156, -1.13
155.256, 0.62
155.347, 0.57
155.352, -0.27
155.355, -1.11
155.451, -0.54
155.451, -0.40
155.456, 0.58
155.547, 0.71
155.554, -0.75
155.554, -0.81
155.650, -0.60
155.652, -0.33
155.657, 0.69
155.747, 0.63
155.754, -0.75
155.754, -0.89
155.856, 0.64
155.947, 0.65
155.953, -0.70
155.955, -1.02
156.051, -0.66
156.052, -0.27
156.056, 0.59
156.147, 0.57
156.152, -0.43
156.156, -1.13
156.250, -0.50
156.252, -0.26
156.256, 0.62
156.348, 0.51
156.353, -0.69
156.355, -1.08
156.449, -0.81
156.451, -0.51
156.456, 0.66
156.547, 0.70
156.552, -0.45
156.553, -0.67
156.647, -1.20
156.647, -1.16
156.657, 0.73
156.747, 0.67
156.751, -0.25
156.753, -0.62
156.847, -1.22
156.847, -1.16
156.857, 0.69
156.947, 0.68
156.955, -0.92
156.956, -1.14
157.051, -0.56
157.052, -0.32
157.057, 0.68
157.147, 0.57
157.154, -0.73
157.156, -1.10
157.256, 0.61
157.347, 0.66
157.353, -0.48
157.355, -1.02
157.456, 0.64
157.547, 0.68
157.656, 0.64
157.747, 0.59
157.752, -0.43
157.754, -0.71
157.856, 0.60
157.947, 0.57
158.050, -0.69
158.052, -0.25
158.057, 0.69
158.147, 0.60
158.154, -0.85
158.156, -1.08
158.250, -0.71
158.250, -0.60
158.257, 0.68
158.347, 0.61
158.451, -0.40
158.451, -0.38
158.456, 0.66
158.547, 0.69
158.552, -0.27
158.552, -0.42
158.553, -0.84
158.554, -1.09
158.650, -0.47
158.652, -0.25
158.656, 0.66
158.747, 0.56
158.849, -0.78
158.852, -0.33
158.856, 0.60
158.947, 0.68
159.056, 0.67
159.147, 0.58
159.152, -0.27
159.154, -0.94
159.256, 0.61
159.347, 0.70
159.355, -0.85
159.356, -1.12
159.456, 0.57
159.547, 0.60
159.552, -0.47
159.553, -0.66
159.651, -0.51
159.652, -0.31
159.656, 0.65
159.747, 0.68
159.751, -0.25
159.754, -0.75
159.850, -0.51
159.852, -0.32
159.856, 0.61
159.947, 0.63
159.952, -0.40
159.954, -1.06
160.051, -0.62
160.052, -0.34
160.056, 0.57
160.147, 0.58
160.151, -0.24
160.153, -0.64
160.250, -0.49
160.252, -0.25
160.256, 0.66
160.347, 0.70
160.353, -0.53
160.355, -1.06
160.457, 0.70
160.547, 0.66
160.552, -0.43
160.553, -0.62
160.555, -1.01
160.556, -1.16
160.649, -0.80
160.652, -0.38
160.656, 0.63
160.747, 0.61
160.751, -0.22
160.752, -0.47
160.754, -0.83
160.756, -1.12
160.851, -0.50
160.851, -0.35
160.856, 0.67
160.947, 0.66
160.952, -0.46
160.953, -0.67
161.057, 0.69
161.147, 0.60
161.155, -0.96
161.156, -1.13
161.257, 0.69
161.347, 0.72
161.352, -0.42
161.354, -0.76
161.355, -0.99
161.356, -1.13
161.449, -0.82
161.451, -0.53
161.457, 0.69
161.547, 0.62
161.555, -1.00
161.556, -1.16
161.656, 0.59
161.747, 0.62
161.753, -0.70
161.756, -1.15
161.849, -0.79
161.851, -0.50
161.856, 0.60
161.947, 0.66
161.952, -0.41
161.954, -1.05
162.049, -0.80
162.051, -0.54
162.057, 0.68
162.147, 0.61
162.249, -0.78
162.251, -0.60
162.256, 0.61
162.347, 0.58
162.351, -0.19
162.353, -0.61
162.456, 0.65
162.547, 0.69
162.552, -0.45
162.554, -0.71
162.555, -0.99
162.556, -1.15
162.656, 0.64
162.747, 0.57
162.751, -0.24
162.756, -1.13
162.856, 0.64
162.947, 0.68
162.953, -0.74
162.956, -1.09
163.057, 0.77
163.146, 0.76
163.154, -0.88
163.155, -1.04
163.250, -0.59
163.252, -0.25
163.256, 0.65
163.347, 0.67
163.351, -0.24
163.352, -0.48
163.353, -0.74
163.355, -1.09
163.457, 0.69
163.547, 0.70
163.553, -0.62
163.554, -0.86
163.651, -0.45
163.652, -0.28
163.656, 0.65
163.747, 0.62
163.752, -0.36
163.756, -1.13
163.857, 0.68
163.947, 0.57
163.952, -0.26
163.952, -0.54
163.953, -0.75
163.954, -0.96
164.050, -0.49
164.052, -0.27
164.056, 0.66
164.147, 0.60
164.152, -0.26
164.155, -1.06
164.250, -0.58
164.252, -0.25
164.256, 0.58
164.347, 0.62
164.352, -0.29
164.352, -0.36
164.355, -0.93
164.356, -1.09
164.450, -0.81
164.451, -0.66
164.456, 0.66
164.547, 0.68
164.552, -0.46
164.556, -1.10
164.656, 0.65
164.747, 0.63
164.753, -0.50
164.754, -1.00
164.849, -0.78
164.850, -0.55
164.856, 0.62
164.947, 0.58
165.049, -0.73
165.051, -0.55
165.056, 0.60
165.147, 0.70
165.153, -0.67
165.153, -0.72
165.257, 0.73
165.347, 0.64
165.354, -0.80
165.354, -0.82
165.449, -0.81
165.451, -0.49
165.456, 0.64
165.547, 0.66
165.552, -0.28
165.552, -0.49
165.554, -0.93
165.554, -1.00
165.656, 0.65
165.747, 0.72
165.751, -0.25
165.754, -0.71
165.755, -0.87
165.756, -1.09
165.856, 0.66
165.947, 0.56
165.953, -0.69
165.956, -1.12
166.049, -0.80
166.051, -0.47
166.056, 0.63
166.147, 0.68
166.152, -0.50
166.153, -0.69
166.257, 0.70
166.347, 0.60
166.355, -0.96
166.356, -1.13
166.456, 0.65
166.547, 0.63
166.553, -0.72
166.556, -1.09
166.649, -0.83
166.651, -0.42
166.656, 0.67
166.747, 0.62
166.752, -0.41
166.753, -0.74
166.755, -0.94
166.755, -1.03
166.850, -0.47
166.852, -0.25
166.856, 0.59
166.947, 0.58
166.952, -0.34
166.952, -0.38
167.050, -0.56
167.052, -0.25
167.056, 0.64
167.147, 0.67
167.251, -0.52
167.252, -0.35
167.257, 0.68
167.347, 0.66
167.456, 0.60
167.547, 0.66
167.551, -0.22
167.553, -0.57
167.553, -0.69
167.555, -1.04
167.657, 0.73
167.746, 0.85
167.753, -0.50
167.753, -0.64
167.849, -0.76
167.851, -0.52
167.856, 0.57
167.947, 0.68
167.954, -0.94
167.954, -1.02
168.057, 0.78
168.146, 0.85
168.146, 0.84
168.147, 0.61
168.152, -0.44
168.154, -0.89
168.249, -0.78
168.251, -0.52
168.256, 0.57
168.347, 0.59
168.352, -0.46
168.354, -0.77
168.451, -0.55
168.451, -0.43
168.457, 0.71
168.547, 0.66
168.656, 0.64
168.747, 0.61
168.753, -0.60
168.755, -0.99
168.857, 0.73
168.947, 0.66
168.953, -0.71
168.955, -1.02
169.049, -0.81
169.051, -0.58
169.057, 0.84
169.146, 0.85
169.146, 0.82
169.147, 0.58
169.151, -0.22
169.153, -0.69
169.257, 0.70
169.347, 0.69
169.352, -0.28
169.355, -1.14
169.456, 0.63
169.547, 0.60
169.553, -0.65
169.554, -0.99
169.649, -0.75
169.651, -0.61
169.652, -0.30
169.653, -0.12
169.656, 0.65
169.747, 0.73
169.753, -0.59
169.753, -0.59
169.755, -0.94
169.755, -1.10
169.850, -0.50
169.852, -0.29
169.857, 0.76
169.947, 0.58
169.952, -0.28
169.952, -0.41
170.056, 0.66
170.147, 0.69
170.152, -0.31
170.152, -0.39
170.153, -0.68
170.155, -1.06
170.250, -0.57
170.252, -0.30
170.256, 0.57
170.347, 0.63
170.354, -0.77
170.354, -0.95
170.451, -0.45
170.451, -0.32
170.456, 0.67
170.547, 0.69
170.553, -0.60
170.555, -1.07
170.656, 0.66
170.747, 0.64
170.751, -0.22
170.753, -0.70
170.857, 0.69
170.946, 0.86
170.952, -0.38
170.955, -1.12
171.057, 0.71
171.147, 0.66
171.256, 0.67
171.347, 0.56
171.451, -0.43
171.451, -0.29
171.456, 0.62
171.547, 0.64
171.553, -0.59
171.553, -0.76
171.555, -0.98
171.556, -1.12
171.657, 0.69
171.747, 0.67
171.857, 0.70
171.947, 0.67
172.050, -0.51
172.052, -0.25
172.057, 0.70
172.147, 0.70
172.154, -0.85
172.154, -1.02
172.257, 0.69
172.347, 0.68
172.352, -0.41
172.355, -1.02
172.449, -0.80
172.452, -0.35
172.457, 0.70
172.547, 0.66
172.552, -0.27
172.554, -0.91
172.650, -0.67
172.652, -0.22
172.657, 0.72
172.747, 0.66
172.751, -0.23
172.753, -0.50
172.753, -0.65
172.755, -0.99
172.851, -0.62
172.852, -0.36
172.856, 0.66
172.947, 0.60
172.953, -0.59
172.956, -1.11
173.050, -0.47
173.052, -0.29
173.056, 0.59
173.147, 0.66
173.152, -0.42
173.155, -0.92
173.250, -0.62
173.252, -0.25
173.257, 0.69
173.347, 0.70
173.352, -0.49
173.355, -1.01
173.456, 0.65
173.547, 0.69
173.553, -0.59
173.555, -1.06
173.657, 0.70
173.747, 0.59
173.754, -0.69
173.756, -1.12
173.849, -0.82
173.851, -0.56
173.856, 0.62
173.947, 0.65
173.953, -0.61
173.956, -1.07
174.051, -0.48
174.051, -0.30
174.056, 0.66
174.147, 0.66
174.152, -0.28
174.153, -0.76
174.257, 0.68
174.347, 0.65
174.353, -0.68
174.355, -1.12
174.450, -0.66
174.452, -0.20
174.457, 0.69
174.547, 0.67
174.551, -0.22
174.552, -0.43
174.656, 0.63
174.747, 0.66
174.752, -0.41
174.754, -0.80
174.856, 0.61
174.947, 0.69
175.057, 0.73
175.147, 0.67
175.154, -0.83
175.156, -1.12
175.257, 0.70
175.347, 0.69
175.355, -1.00
175.356, -1.12
175.456, 0.65
175.547, 0.67
175.553, -0.68
175.555, -0.94
175.657, 0.72
175.746, 0.87
175.747, 0.65
175.747, 0.65
175.755, -0.91
175.756, -1.11
175.849, -0.78
175.850, -0.63
175.857, 0.69
175.947, 0.68
176.056, 0.57
176.147, 0.70
176.151, -0.23
176.152, -0.46
176.250, -0.50
176.252, -0.30
176.257, 0.67
176.347, 0.72
176.352, -0.45
176.355, -1.02
176.457, 0.70
176.546, 0.76
176.553, -0.77
176.556, -1.12
176.650, -0.50
176.652, -0.29
176.657, 0.78
176.747, 0.70
176.753, -0.65
176.755, -1.00
176.857, 0.75
176.947, 0.63
176.955, -0.94
176.956, -1.07
177.056, 0.65
177.147, 0.67
177.251, -0.55
177.252, -0.34
177.256, 0.62
177.347, 0.72
177.456, 0.65
177.546, 0.85
177.546, 0.81
177.547, 0.61
177.656, 0.63
177.747, 0.63
177.752, -0.37
177.754, -0.81
177.850, -0.66
177.852, -0.32
177.856, 0.57
177.947, 0.75
177.954, -0.78
177.954, -0.88
178.050, -0.54
178.052, -0.28
178.057, 0.72
178.148, 0.55
178.151, -0.25
178.153, -0.73
178.155, -0.93
178.156, -1.11
178.256, 0.58
178.347, 0.67
178.451, -0.46
178.452, -0.28
178.456, 0.64
178.547, 0.68
178.656, 0.63
178.747, 0.69
178.857, 0.73
178.947, 0.59
178.951, -0.22
178.955, -1.10
179.057, 0.71
179.147, 0.66
179.153, -0.50
179.154, -0.92
179.257, 0.70
179.347, 0.58
179.355, -1.00
179.356, -1.15
179.449, -0.79
179.451, -0.50
179.456, 0.59
179.547, 0.73
179.553, -0.61
179.556, -1.14
179.651, -0.59
179.652, -0.32
179.656, 0.64
179.747, 0.69
179.751, -0.22
179.756, -1.14
179.856, 0.66
179.947, 0.59
179.952, -0.41
179.954, -0.66
180.050, -0.48
180.052, -0.28
180.057, 0.69
180.146, 0.86
180.152, -0.28
180.153, -0.59
180.256, 0.66
180.347, 0.60
180.352, -0.31
180.353, -0.68
180.456, 0.56
180.547, 0.70
180.554, -0.69
180.556, -1.13
180.657, 0.70
180.747, 0.62
180.752, -0.23
180.752, -0.38
180.850, -0.57
180.852, -0.36
180.857, 0.73
180.947, 0.72
180.952, -0.30
180.954, -0.64
180.955, -1.10
180.955, -1.13
181.050, -0.65
181.052, -0.25
181.056, 0.63
181.147, 0.65
181.155, -0.93
181.156, -1.11
181.252, -0.24
181.252, -0.22
181.256, 0.64
181.346, 0.82
181.450, -0.53
181.452, -0.32
181.456, 0.67
181.547, 0.74
181.553, -0.47
181.553, -0.60
181.656, 0.64
181.747, 0.59
181.754, -0.87
181.754, -0.93
181.850, -0.75
181.851, -0.60
181.856, 0.62
181.947, 0.68
181.953, -0.52
181.953, -0.66
182.056, 0.65
182.147, 0.62
182.153, -0.46
182.153, -0.67
182.257, 0.72
182.347, 0.60
182.352, -0.40
182.353, -0.63
182.452, -0.27
182.452, -0.17
182.457, 0.69
182.547, 0.68
182.551, -0.23
182.552, -0.39
182.650, -0.53
182.652, -0.30
182.656, 0.56
182.747, 0.65
182.753, -0.79
182.754, -1.07
182.857, 0.68
182.947, 0.57
182.955, -0.91
182.955, -1.04
183.050, -0.50
183.052, -0.26
183.056, 0.67
183.147, 0.59
183.154, -0.84
183.156, -1.12
183.250, -0.51
183.252, -0.25
183.256, 0.62
183.348, 0.54
183.352, -0.23
183.352, -0.36
183.457, 0.69
183.547, 0.63
183.551, -0.21
183.556, -1.16
183.657, 0.67
183.748, 0.54
183.753, -0.63
183.755, -0.90
183.849, -0.82
183.852, -0.32
183.856, 0.67
183.947, 0.62
183.952, -0.36
183.952, -0.40
183.954, -0.93
183.954, -1.00
184.050, -0.52
184.052, -0.25
184.056, 0.61
184.147, 0.69
184.155, -1.03
184.156, -1.16
184.256, 0.58
184.347, 0.57
184.351, -0.24
184.352, -0.46
184.457, 0.68
184.547, 0.55
184.552, -0.30
184.555, -1.10
184.657, 0.69
184.747, 0.65
184.753, -0.47
184.753, -0.54
184.849, -0.77
184.851, -0.45
184.856, 0.67
184.947, 0.61
184.952, -0.39
184.954, -1.00
185.056, 0.58
185.147, 0.71
185.154, -0.95
185.156, -1.12
185.250, -0.52
185.252, -0.29
185.256, 0.66
185.347, 0.60
185.354, -0.89
185.356, -1.12
185.451, -0.62
185.452, -0.26
185.456, 0.64
185.547, 0.56
185.553, -0.47
185.553, -0.53
185.650, -0.58
185.652, -0.26
185.656, 0.66
185.747, 0.71
185.751, -0.21
185.752, -0.46
185.754, -0.87
185.755, -1.07
185.850, -0.51
185.852, -0.28
185.856, 0.67
185.947, 0.61
185.953, -0.76
185.954, -0.99
186.056, 0.66
186.147, 0.65
186.247, -1.19
186.247, -1.18
186.250, -0.51
186.252, -0.27
186.256, 0.62
186.347, 0.60
186.352, -0.36
186.354, -0.76
186.355, -0.96
186.356, -1.12
186.456, 0.61
186.548, 0.53
186.553, -0.67
186.554, -0.90
186.656, 0.65
186.747, 0.56
186.847, -1.20
186.847, -1.16
186.856, 0.67
186.947, 0.57
187.047, -1.19
187.047, -1.18
187.051, -0.54
187.051, -0.49
187.057, 0.69
187.148, 0.53
187.153, -0.73
187.156, -1.15
187.257, 0.72
187.347, 0.58
187.456, 0.55
187.548, 0.54
187.552, -0.29
187.552, -0.40
187.555, -0.93
187.556, -1.08
187.647, -1.18
187.647, -1.18
187.650, -0.56
187.652, -0.28
187.656, 0.67
187.748, 0.50
187.752, -0.29
187.752, -0.35
187.755, -0.91
187.756, -1.10
187.850, -0.52
187.852, -0.26
187.857, 0.79
187.946, 0.85
187.946, 0.76
187.947, 0.64
187.951, -0.20
187.954, -0.70
188.049, -0.81
188.051, -0.54
188.057, 0.71
188.147, 0.62
188.151, -0.22
188.152, -0.43
188.250, -0.53
188.252, -0.29
188.256, 0.65
188.347, 0.58
188.354, -0.77
188.355, -0.90
188.456, 0.60
188.547, 0.55
188.555, -0.92
188.556, -1.13
188.650, -0.48
188.652, -0.28
188.656, 0.56
188.748, 0.44
188.753, -0.78
188.755, -1.06
188.847, -1.20
188.847, -1.16
188.856, 0.63
188.948, 0.51
188.952, -0.39
188.953, -0.67
189.057, 0.72
189.147, 0.65
189.154, -0.85
189.156, -1.15
189.249, -0.72
189.252, -0.19
189.257, 0.72
189.347, 0.59
189.354, -0.92
189.356, -1.14
189.449, -0.74
189.451, -0.57
189.456, 0.62
189.547, 0.59
189.553, -0.51
189.554, -0.95
189.656, 0.59
189.747, 0.65
189.752, -0.37
189.753, -0.78
189.849, -0.79
189.851, -0.53
189.856, 0.52
189.948, 0.52
189.952, -0.39
189.953, -0.61
190.050, -0.53
190.051, -0.32
190.057, 0.71
190.147, 0.71
190.148, 0.55
190.148, 0.43
190.250, -0.55
190.252, -0.25
190.256, 0.64
190.347, 0.65
190.456, 0.62
190.547, 0.70
190.553, -0.81
190.556, -1.09
190.656, 0.66
190.747, 0.56
190.753, -0.80
190.754, -0.96
190.850, -0.52
190.852, -0.27
190.857, 0.71
190.947, 0.65
190.952, -0.39
190.955, -0.99
191.056, 0.62
191.148, 0.54
191.151, -0.23
191.153, -0.61
191.256, 0.62
191.348, 0.51
191.353, -0.75
191.355, -1.01
191.456, 0.61
191.547, 0.70
191.650, -0.47
191.652, -0.29
191.656, 0.60
191.748, 0.55
191.753, -0.78
191.754, -1.00
191.857, 0.71
191.947, 0.59
191.954, -0.83
191.956, -1.09
192.056, 0.65
192.148, 0.51
192.152, -0.45
192.153, -0.77
192.256, 0.61
192.347, 0.56
192.352, -0.31
192.352, -0.40
192.353, -0.79
192.355, -1.14
192.449, -0.77
192.451, -0.49
192.456, 0.66
192.547, 0.56
192.553, -0.78
192.554, -0.98
192.656, 0.59
192.747, 0.73
192.752, -0.42
192.753, -0.80
192.856, 0.57
192.948, 0.42
193.052, -0.25
193.052, -0.16
193.057, 0.68
193.147, 0.60
193.248, -1.02
193.248, -1.01
193.256, 0.65
193.348, 0.51
193.352, -0.43
193.353, -0.77
193.456, 0.61
193.547, 0.62
193.555, -0.90
193.556, -1.12
193.649, -0.69
193.650, -0.57
193.656, 0.57
193.748, 0.49
193.849, -0.79
193.851, -0.55
193.856, 0.63
193.947, 0.56
193.952, -0.40
193.955, -1.07
194.056, 0.66
194.147, 0.58
194.256, 0.67
194.347, 0.56
194.352, -0.41
194.353, -0.65
194.448, -0.99
194.448, -0.95
194.456, 0.60
194.548, 0.53
194.552, -0.42
194.554, -0.89
194.555, -1.06
194.555, -1.12
194.648, -1.00
194.648, -0.95
194.650, -0.69
194.650, -0.59
194.656, 0.58
194.747, 0.62
194.752, -0.46
194.754, -0.71
194.849, -0.79
194.852, -0.28
194.856, 0.65
194.948, 0.55
194.952, -0.42
194.953, -0.69
195.050, -0.55
195.052, -0.29
195.056, 0.60
195.147, 0.57
195.155, -1.00
195.156, -1.11
195.251, -0.45
195.251, -0.41
195.256, 0.60
195.348, 0.44
195.355, -0.92
195.356, -1.11
195.450, -0.56
195.452, -0.27
195.456, 0.54
195.547, 0.67
195.649, -0.70
195.650, -0.48
195.656, 0.51
195.748, 0.44
195.856, 0.59
195.948, 0.43
195.952, -0.34
195.953, -0.64
195.955, -0.88
195.956, -1.10
196.056, 0.58
196.147, 0.68
196.152, -0.29
196.152, -0.41
196.256, 0.67
196.347, 0.60
196.354, -0.88
196.356, -1.11
196.456, 0.59
196.547, 0.67
196.554, -0.93
196.556, -1.13
196.656, 0.54
196.748, 0.53
196.856, 0.63
196.947, 0.58
196.952, -0.45
196.954, -0.75
196.954, -0.86
196.956, -1.12
197.050, -0.69
197.052, -0.34
197.056, 0.64
197.147, 0.63
197.251, -0.53
197.252, -0.25
197.256, 0.61
197.347, 0.63
197.352, -0.26
197.354, -0.94
197.456, 0.63
197.547, 0.65
197.552, -0.39
197.554, -0.96
197.554, -1.02
197.555, -1.06
197.656, 0.67
197.747, 0.58
197.753, -0.70
197.755, -1.04
197.850, -0.76
197.850, -0.74
197.856, 0.65
197.947, 0.63
197.953, -0.62
197.955, -1.05
198.050, -0.74
198.050, -0.71
198.056, 0.65
198.147, 0.58
198.153, -0.48
198.153, -0.63
198.249, -0.78
198.251, -0.56
198.256, 0.63
198.347, 0.65
198.351, -0.22
198.352, -0.46
198.355, -1.01
198.356, -1.12
198.456, 0.59
198.547, 0.61
198.552, -0.25
198.552, -0.45
198.656, 0.56
198.748, 0.52
198.754, -0.82
198.756, -1.12
198.856, 0.62
198.947, 0.68
198.955, -1.03
198.955, -1.06
199.056, 0.58
199.147, 0.56
199.152, -0.26
199.154, -0.80
199.256, 0.54
199.348, 0.54
199.352, -0.40
199.353, -0.78
199.451, -0.57
199.452, -0.27
199.456, 0.64
199.547, 0.57
199.551, -0.21
199.552, -0.45
199.554, -0.82
199.556, -1.11
199.656, 0.52
199.747, 0.56
199.753, -0.63
199.756, -1.08
199.856, 0.64
199.948, 0.52
199.952, -0.38
199.953, -0.66
199.955, -1.00
199.956, -1.11
200.056, 0.61
200.148, 0.55
200.153, -0.83
200.156, -1.09
200.249, -0.73
200.250, -0.57
200.256, 0.63
200.347, 0.57
200.353, -0.72
200.356, -1.09
200.456, 0.56
200.547, 0.60
200.553, -0.46
200.553, -0.74
200.555, -1.08
200.555, -1.11
200.656, 0.60
200.748, 0.45
200.753, -0.78
200.755, -1.03
200.849, -0.65
200.850, -0.50
200.856, 0.53
200.947, 0.61
200.952, -0.44
200.954, -0.95
201.056, 0.62
201.147, 0.70
201.152, -0.40
201.154, -0.90
201.154, -1.02
201.156, -1.16
201.250, -0.79
201.252, -0.26
201.256, 0.67
201.347, 0.62
201.353, -0.65
201.355, -1.09
201.450, -0.59
201.452, -0.25
201.456, 0.62
201.548, 0.53
201.555, -0.96
201.556, -1.11
201.656, 0.54
201.748, 0.55
201.752, -0.35
201.756, -1.12
201.856, 0.51
201.948, 0.52
201.952, -0.28
201.952, -0.39
201.953, -0.67
201.956, -1.09
202.056, 0.66
202.148, 0.54
202.153, -0.45
202.153, -0.66
202.250, -0.69
202.252, -0.24
202.256, 0.58
202.348, 0.53
202.352, -0.40
202.354, -0.94
202.354, -1.02
202.356, -1.11
202.451, -0.62
202.452, -0.29
202.456, 0.60
202.548, 0.52
202.552, -0.32
202.552, -0.38
202.555, -0.87
202.556, -1.12
202.650, -0.59
202.652, -0.24
202.656, 0.56
202.747, 0.57
202.755, -0.92
202.756, -1.12
202.850, -0.57
202.852, -0.32
202.856, 0.62
202.948, 0.53
202.954, -0.85
202.955, -1.04
203.056, 0.53
203.147, 0.57
203.152, -0.40
203.154, -1.04
203.251, -0.52
203.251, -0.40
203.256, 0.57
203.347, 0.69
203.353, -0.44
203.353, -0.56
203.456, 0.64
203.547, 0.60
203.656, 0.65
203.747, 0.58
203.755, -1.02
203.756, -1.11
203.856, 0.60
203.948, 0.51
203.951, -0.22
203.952, -0.46
204.051, -0.50
204.051, -0.41
204.056, 0.54
204.147, 0.68
204.154, -0.91
204.154, -0.91
204.256, 0.58
204.347, 0.62
204.456, 0.66
204.547, 0.58
204.551, -0.24
204.552, -0.41
204.650, -0.56
204.652, -0.29
204.656, 0.58
204.747, 0.55
204.856, 0.57
204.947, 0.60
204.955, -1.02
204.956, -1.11
205.049, -0.75
205.052, -0.33
205.056, 0.54
205.147, 0.66
205.256, 0.56
205.347, 0.62
205.351, -0.20
205.353, -0.49
205.450, -0.62
205.452, -0.25
205.456, 0.56
205.548, 0.54
205.552, -0.43
205.553, -0.67
205.656, 0.55
205.747, 0.56
205.752, -0.23
205.755, -0.98
205.856, 0.63
205.947, 0.56
205.953, -0.82
205.955, -1.07
206.056, 0.54
206.147, 0.63
206.151, -0.18
206.153, -0.60
206.256, 0.54
206.347, 0.59
206.450, -0.58
206.452, -0.23
206.456, 0.59
206.547, 0.59
206.552, -0.36
206.556, -1.12
206.656, 0.59
206.747, 0.58
206.849, -0.72
206.852, -0.31
206.856, 0.61
206.947, 0.56
206.953, -0.62
206.955, -1.03
207.056, 0.55
207.147, 0.56
207.250, -0.56
207.252, -0.26
207.256, 0.54
207.347, 0.56
207.352, -0.38
207.353, -0.73
207.456, 0.62
207.547, 0.56
207.553, -0.74
207.556, -1.12
207.651, -0.50
207.651, -0.40
207.656, 0.60
207.748, 0.53
207.856, 0.53
207.947, 0.59
207.952, -0.32
207.952, -0.35
208.050, -0.56
208.052, -0.28
208.056, 0.54
208.147, 0.56
208.152, -0.39
208.153, -0.80
208.256, 0.57
208.347, 0.59
208.456, 0.58
208.548, 0.52
208.555, -0.90
208.556, -1.12
208.656, 0.58
208.747, 0.67
208.752, -0.34
208.752, -0.34
208.753, -0.80
208.755, -1.04
208.856, 0.57
208.947, 0.59
208.952, -0.29
208.953, -0.66
208.955, -1.02
208.955, -1.10
209.056, 0.59
209.147, 0.58
209.256, 0.58
209.347, 0.56
209.352, -0.25
209.353, -0.60
209.456, 0.56
209.547, 0.56
209.555, -1.03
209.556, -1.13
209.656, 0.59
209.747, 0.61
209.751, -0.22
209.752, -0.41
209.849, -0.81
209.851, -0.51
209.856, 0.56
209.948, 0.48
209.953, -0.77
209.956, -1.06
210.056, 0.60
210.148, 0.55
210.155, -1.07
210.155, -1.10
210.251, -0.45
210.251, -0.39
210.256, 0.59
210.347, 0.59
210.456, 0.61
210.547, 0.65
210.656, 0.61
210.748, 0.54
210.752, -0.43
210.754, -0.93
210.850, -0.52
210.852, -0.24
210.856, 0.67
210.947, 0.73
210.953, -0.51
210.955, -1.00
211.049, -0.81
211.052, -0.32
211.056, 0.54
211.147, 0.65
211.153, -0.68
211.155, -0.96
211.250, -0.50
211.252, -0.26
211.256, 0.62
211.347, 0.58
211.353, -0.59
211.353, -0.70
211.450, -0.49
211.452, -0.27
211.456, 0.64
211.548, 0.52
211.553, -0.47
211.553, -0.48
211.555, -1.02
211.555, -1.08
211.651, -0.47
211.652, -0.29
211.656, 0.55
211.747, 0.65
211.752, -0.46
211.753, -0.72
211.755, -0.97
211.755, -0.99
211.851, -0.63
211.852, -0.31
211.856, 0.65
211.947, 0.64
212.056, 0.58
212.147, 0.57
212.155, -1.03
212.156, -1.11
212.256, 0.60
212.347, 0.62
212.449, -0.79
212.452, -0.32
212.456, 0.62
212.547, 0.56
212.552, -0.37
212.554, -0.80
212.656, 0.59
212.747, 0.55
212.751, -0.26
212.752, -0.44
212.754, -0.94
212.756, -1.12
212.856, 0.54
212.947, 0.57
212.952, -0.42
212.953, -0.84
212.955, -0.97
212.955, -1.04
213.056, 0.49
213.148, 0.53
213.153, -0.66
213.156, -1.12
213.256, 0.59
213.347, 0.62
213.352, -0.29
213.352, -0.45
213.353, -0.69
213.355, -1.02
213.456, 0.62
213.547, 0.56
213.553, -0.64
213.555, -1.08
213.650, -0.51
213.652, -0.27
213.656, 0.55
213.747, 0.66
213.849, -0.75
213.850, -0.54
213.856, 0.64
213.947, 0.65
213.952, -0.33
213.952, -0.36
214.056, 0.61
214.147, 0.66
214.256, 0.57
214.347, 0.65
214.353, -0.48
214.353, -0.61
214.355, -0.97
214.355, -0.99
214.456, 0.61
214.547, 0.68
214.554, -0.71
214.555, -1.06
214.649, -0.71
214.651, -0.50
214.656, 0.66
214.748, 0.53
214.752, -0.39
214.755, -1.04
214.856, 0.51
214.947, 0.67
214.954, -0.70
214.954, -0.82
215.056, 0.60
215.147, 0.65
215.153, -0.65
215.154, -0.95
215.252, -0.24
215.252, -0.19
215.256, 0.60
215.347, 0.58
215.352, -0.41
215.353, -0.73
215.450, -0.54
215.452, -0.26
215.456, 0.67
215.547, 0.66
215.552, -0.39
215.555, -1.02
215.650, -0.81
215.652, -0.35
215.656, 0.56
215.747, 0.62
215.754, -0.79
215.754, -0.80
215.856, 0.63
215.947, 0.55
215.952, -0.37
215.954, -0.81
215.954, -0.97
215.956, -1.10
216.056, 0.62
216.147, 0.57
216.155, -0.93
216.155, -1.02
216.249, -0.79
216.252, -0.33
216.256, 0.63
216.347, 0.55
216.353, -0.60
216.355, -1.05
216.449, -0.77
216.451, -0.43
216.456, 0.66
216.547, 0.57
216.552, -0.42
216.553, -0.69
216.649, -0.81
216.651, -0.63
216.656, 0.53
216.747, 0.66
216.856, 0.58
216.947, 0.57
216.951, -0.20
216.952, -0.38
216.955, -0.92
216.955, -1.03
217.056, 0.56
217.147, 0.56
217.152, -0.26
217.154, -0.81
217.256, 0.58
217.347, 0.61
217.353, -0.40
217.353, -0.68
217.354, -0.98
217.356, -1.12
217.451, -0.45
217.452, -0.29
217.456, 0.63
217.547, 0.60
217.551, -0.23
217.552, -0.37
217.650, -0.48
217.652, -0.25
217.656, 0.56
217.747, 0.68
217.752, -0.36
217.756, -1.11
217.856, 0.59
217.948, 0.55
217.952, -0.41
217.954, -0.79
217.954, -0.92
217.956, -1.12
218.056, 0.65
218.147, 0.56
218.152, -0.26
218.152, -0.42
218.155, -0.96
218.156, -1.09
218.250, -0.47
218.252, -0.28
218.256, 0.51
218.348, 0.55
218.352, -0.41
218.354, -0.92
218.451, -0.47
218.451, -0.31
218.456, 0.60
218.547, 0.59
218.552, -0.40
218.553, -0.71
218.650, -0.51
218.652, -0.26
218.656, 0.58
218.748, 0.54
218.753, -0.66
218.756, -1.10
218.856, 0.54
218.947, 0.60
218.952, -0.39
218.953, -0.66
219.050, -0.56
219.052, -0.23
219.056, 0.48
219.147, 0.59
219.152, -0.26
219.154, -0.93
219.256, 0.59
219.348, 0.54
219.353, -0.43
219.354, -0.75
219.354, -0.76
219.356, -1.12
219.450, -0.48
219.452, -0.24
219.456, 0.63
219.547, 0.56
219.553, -0.44
219.553, -0.66
219.555, -0.96
219.556, -1.12
219.656, 0.57
219.747, 0.63
219.752, -0.46
219.753, -0.79
219.755, -1.00
219.756, -1.10
219.851, -0.43
219.851, -0.29
219.856, 0.61
219.948, 0.52
219.952, -0.36
219.955, -0.96
220.049, -0.79
220.052, -0.28
220.056, 0.56
220.148, 0.52
220.152, -0.50
220.156, -1.10
220.256, 0.60
220.348, 0.54
220.354, -0.71
220.356, -1.12
220.450, -0.53
220.452, -0.28
220.456, 0.56
220.547, 0.59
220.554, -0.71
220.555, -0.96
220.650, -0.58
220.652, -0.29
220.656, 0.58
220.748, 0.55
220.751, -0.23
220.752, -0.42
220.754, -0.81
220.756, -1.12
220.850, -0.57
220.852, -0.25
220.856, 0.64
220.947, 0.56
221.056, 0.56
221.147, 0.57
221.151, -0.22
221.152, -0.39
221.155, -0.87
221.156, -1.09
221.249, -0.81
221.251, -0.46
221.256, 0.59
221.348, 0.55
221.352, -0.42
221.356, -1.12
221.456, 0.65
221.548, 0.54
221.554, -0.73
221.556, -1.11
221.656, 0.60
221.747, 0.66
221.856, 0.65
221.948, 0.52
222.056, 0.61
222.147, 0.60
222.153, -0.44
222.156, -1.10
222.250, -0.49
222.252, -0.27
222.256, 0.58
222.348, 0.53
222.352, -0.30
222.353, -0.66
222.355, -0.89
222.356, -1.08
222.449, -0.79
222.451, -0.47
222.456, 0.56
222.547, 0.62
222.552, -0.47
222.555, -0.96
222.656, 0.64
222.748, 0.54
222.752, -0.32
222.756, -1.13
222.856, 0.55
222.948, 0.51
223.050, -0.55
223.052, -0.26
223.056, 0.65
223.147, 0.59
223.154, -0.81
223.156, -1.12
223.251, -0.70
223.252, -0.26
223.256, 0.59
223.347, 0.61
223.352, -0.27
223.352, -0.38
223.353, -0.59
223.355, -0.90
223.450, -0.52
223.452, -0.24
223.457, 0.68
223.547, 0.56
223.555, -0.98
223.556, -1.09
223.656, 0.57
223.747, 0.60
223.755, -0.96
223.755, -0.98
223.850, -0.55
223.851, -0.29
223.856, 0.55
223.947, 0.63
223.955, -0.94
223.955, -1.00
224.051, -0.71
224.052, -0.31
224.056, 0.56
224.147, 0.56
224.152, -0.37
224.154, -0.78
224.250, -0.50
224.252, -0.26
224.256, 0.64
224.347, 0.63
224.351, -0.25
224.352, -0.41
224.449, -0.81
224.451, -0.61
224.456, 0.57
224.547, 0.60
224.553, -0.53
224.553, -0.74
224.555, -0.97
224.556, -1.10
224.656, 0.63
224.748, 0.52
224.755, -0.96
224.755, -1.08
224.849, -0.79
224.851, -0.51
224.856, 0.59
224.947, 0.65
224.954, -0.66
224.954, -0.82
225.050, -0.50
225.052, -0.27
225.056, 0.67
225.147, 0.63
225.152, -0.32
225.152, -0.39
225.256, 0.61
225.347, 0.66
225.456, 0.66
225.548, 0.52
225.555, -0.95
225.556, -1.11
225.656, 0.55
225.747, 0.66
225.753, -0.67
225.755, -0.95
225.856, 0.60
225.947, 0.57
226.051, -0.55
226.052, -0.32
226.056, 0.58
226.147, 0.65
226.152, -0.39
226.154, -0.68
226.250, -0.53
226.252, -0.29
226.256, 0.67
226.348, 0.53
226.352, -0.31
226.355, -0.96
226.456, 0.56
226.547, 0.57
226.552, -0.27
226.553, -0.76
226.650, -0.49
226.652, -0.23
226.656, 0.58
226.748, 0.52
226.753, -0.67
226.753, -0.70
226.755, -0.96
226.756, -1.10
226.849, -0.80
226.851, -0.48
226.856, 0.52
226.947, 0.57
226.952, -0.33
226.952, -0.34
226.953, -0.68
226.955, -0.99
227.056, 0.54
227.148, 0.55
227.153, -0.60
227.156, -1.07
227.256, 0.64
227.347, 0.56
227.352, -0.37
227.354, -0.77
227.354, -0.81
227.356, -1.11
227.456, 0.51
227.547, 0.59
227.552, -0.24
227.553, -0.52
227.656, 0.57
227.747, 0.56
227.752, -0.35
227.753, -0.70
227.755, -0.97
227.756, -1.09
227.849, -0.80
227.851, -0.53
227.856, 0.61
227.947, 0.61
227.952, -0.42
227.955, -0.96
228.056, 0.61
228.147, 0.59
228.154, -0.68
228.155, -0.99
228.249, -0.84
228.252, -0.37
228.256, 0.54
228.347, 0.58
228.456, 0.58
228.548, 0.52
228.656, 0.54
228.748, 0.55
228.752, -0.42
228.753, -0.81
228.851, -0.56
228.851, -0.49
228.856, 0.57
228.948, 0.53
228.953, -0.61
228.955, -0.98
229.049, -0.81
229.052, -0.31
229.056, 0.62
229.147, 0.58
229.152, -0.40
229.153, -0.75
229.155, -1.03
229.156, -1.12
229.251, -0.42
229.251, -0.33
229.256, 0.65
229.347, 0.61
229.352, -0.29
229.352, -0.33
229.355, -1.00
229.355, -1.05
229.451, -0.53
229.452, -0.30
229.456, 0.54
229.547, 0.56
229.552, -0.27
229.552, -0.37
229.555, -0.99
229.555, -1.09
229.656, 0.54
229.747, 0.59
229.755, -1.01
229.756, -1.09
229.856, 0.58
229.947, 0.60
229.955, -1.02
229.955, -1.07
230.051, -0.47
230.051, -0.35
230.056, 0.60
230.148, 0.54
230.153, -0.67
230.155, -1.05
230.256, 0.60
230.347, 0.60
230.354, -0.88
230.356, -1.10
230.456, 0.60
230.547, 0.58
230.553, -0.56
230.555, -0.96
230.650, -0.50
230.652, -0.25
230.656, 0.58
230.748, 0.49
230.753, -0.66
230.756, -1.10
230.852, -0.31
230.852, -0.18
230.856, 0.51
230.948, 0.54
230.953, -0.72
230.955, -1.08
231.050, -0.54
231.052, -0.25
231.056, 0.58
231.148, 0.55
231.152, -0.42
231.154, -0.85
231.154, -0.99
231.156, -1.11
231.252, -0.23
231.252, -0.20
231.256, 0.57
231.347, 0.56
231.354, -0.85
231.354, -1.01
231.450, -0.61
231.452, -0.27
231.456, 0.51
231.548, 0.52
231.553, -0.77
231.556, -1.10
231.656, 0.61
231.748, 0.55
231.752, -0.24
231.752, -0.34
231.754, -0.69
231.754, -0.98
231.856, 0.55
231.948, 0.53
231.952, -0.34
231.954, -0.90
232.051, -0.56
232.051, -0.49
232.056, 0.53
232.148, 0.53
232.256, 0.60
232.348, 0.51
232.355, -1.02
232.356, -1.11
232.456, 0.57
232.547, 0.57
232.552, -0.39
232.553, -0.66
232.656, 0.52
232.747, 0.56
232.752, -0.26
232.755, -1.02
232.850, -0.59
232.852, -0.29
232.856, 0.65
232.947, 0.60
232.951, -0.23
232.954, -0.82
233.050, -0.61
233.052, -0.25
233.056, 0.57
233.148, 0.55
233.256, 0.63
233.347, 0.60
233.353, -0.46
233.353, -0.65
233.355, -1.04
233.355, -1.08
233.450, -0.54
233.452, -0.28
233.456, 0.63
233.548, 0.53
233.552, -0.35
233.554, -0.98
233.554, -0.99
233.556, -1.07
233.656, 0.53
233.747, 0.60
233.752, -0.43
233.756, -1.12
233.850, -0.53
233.852, -0.31
233.856, 0.55
233.948, 0.53
233.953, -0.59
233.955, -1.06
234.056, 0.60
234.148, 0.49
234.152, -0.31
234.155, -1.06
234.249, -0.80
234.251, -0.51
234.256, 0.60
234.347, 0.56
234.352, -0.41
234.356, -1.09
234.456, 0.54
234.547, 0.57
234.553, -0.43
234.553, -0.70
234.656, 0.54
234.748, 0.45
234.752, -0.22
234.753, -0.81
234.849, -0.75
234.851, -0.54
234.852, -0.25
234.852, -0.18
234.856, 0.53
234.948, 0.53
234.953, -0.43
234.953, -0.58
234.955, -0.95
234.956, -1.09
235.049, -0.79
235.051, -0.54
235.056, 0.55
235.148, 0.51
235.151, -0.24
235.152, -0.46
235.155, -0.91
235.156, -1.12
235.255, 0.46
235.348, 0.47
235.353, -0.63
235.355, -1.07
235.449, -0.76
235.452, -0.33
235.456, 0.53
235.548, 0.54
235.555, -1.02
235.556, -1.12
235.650, -0.77
235.652, -0.25
235.656, 0.55
235.748, 0.55
235.752, -0.39
235.756, -1.08
235.856, 0.57
235.948, 0.53
236.051, -0.52
236.052, -0.31
236.056, 0.55
236.147, 0.55
236.152, -0.42
236.153, -0.75
236.256, 0.65
236.347, 0.57
236.353, -0.58
236.354, -0.94
236.450, -0.58
236.452, -0.25
236.456, 0.59
236.548, 0.51
236.552, -0.36
236.555, -1.08
