time (sec), current (uA)
0.063, -0.21
0.140, -0.19
0.263, 0.72
0.340, -0.11
0.463, -0.90
0.540, 3.56
0.663, -3.39
0.740, 2.77
0.863, -3.17
0.940, 2.29
1.063, 2.72
1.140, -1.94
1.263, -0.61
1.340, -0.75
1.463, 3.19
1.540, -5.01
1.663, 4.78
1.740, 2.21
1.863, -0.18
1.940, 0.47
2.063, 0.49
2.140, -0.46
2.263, -2.75
2.340, 1.69
2.463, 2.12
2.540, 0.31
2.663, 5.51
2.740, -2.32
2.863, -3.81
2.940, -3.87
3.063, 1.65
3.140, -4.44
3.263, 5.82
3.340, -2.93
3.463, 5.03
3.540, -0.91
3.663, -0.86
3.740, -4.28
3.863, -2.45
3.940, -1.50
4.063, -3.42
4.140, -4.58
4.263, 1.56
4.340, 1.78
4.463, -1.10
4.540, -1.38
4.663, 44.41
4.740, 45.76
4.863, 45.57
4.940, 44.48
5.063, 54.34
5.140, 50.33
5.263, 45.22
5.340, 47.42
5.463, 46.81
5.540, 41.22
5.663, 43.95
5.740, 46.37
5.863, 44.38
5.940, 42.75
6.063, 47.07
6.140, 43.33
6.263, 49.03
6.340, 44.35
6.463, 46.75
6.540, 44.49
6.663, 44.39
6.740, 45.41
6.863, 44.39
6.940, 48.29
7.063, 47.90
7.140, 45.04
7.263, 49.07
7.340, 44.96
7.463, 46.22
7.540, 46.66
7.663, 48.78
7.740, 48.54
7.863, 46.18
7.940, 48.77
8.063, 49.24
8.140, 45.35
8.263, 48.57
8.340, 48.26
8.463, 45.14
8.540, 49.76
8.663, 47.73
8.740, 47.82
8.863, 47.81
8.940, 46.86
9.063, 49.39
9.140, 48.04
9.263, 46.72
9.340, 47.72
9.463, 46.64
9.540, 50.82
9.663, 50.91
9.740, 50.96
9.863, 45.97
9.940, 51.40
10.063, 47.35
10.140, 45.62
10.263, 50.01
10.340, 46.12
10.463, 48.36
10.540, 46.15
10.663, 47.31
10.740, 49.50
10.863, 50.84
10.940, 48.50
11.063, 52.19
11.140, 49.30
11.263, 49.14
11.340, 45.48
11.463, 48.31
11.540, 48.04
11.663, 49.93
11.740, 48.37
11.863, 48.99
11.940, 46.90
12.063, 48.78
12.140, 51.01
12.263, 50.00
12.340, 50.24
12.463, 49.20
12.540, 53.04
12.663, 46.39
12.740, 48.04
12.863, 50.39
12.940, 47.45
13.063, 49.42
13.140, 46.90
13.263, 47.63
13.340, 49.11
13.463, 49.54
13.540, 48.20
13.663, 52.05
13.740, 51.29
13.863, 49.27
13.940, 51.62
14.063, 50.70
14.140, 52.67
14.263, 47.31
14.340, 54.44
14.463, 51.76
14.540, 51.35
14.663, 48.30
14.740, 44.82
14.863, 49.68
14.940, 58.61
15.063, 48.39
15.140, 53.96
15.263, 52.14
15.340, 52.83
15.463, 49.67
15.540, 46.75
15.663, 53.95
15.740, 47.07
15.863, 48.48
15.940, 49.90
16.063, 50.57
16.140, 57.29
16.263, 52.59
16.340, 50.34
16.463, 50.68
16.540, 54.56
16.663, 52.36
16.740, 53.67
16.863, 51.45
16.940, 57.72
17.063, 49.72
17.140, 56.53
17.263, 49.84
17.340, 48.12
17.463, 52.53
17.540, 48.02
17.663, 50.75
17.740, 52.48
17.863, 51.14
17.940, 45.84
18.063, 51.83
18.140, 49.85
18.263, 49.83
18.340, 51.22
18.463, 50.97
18.540, 52.29
18.663, 51.67
18.740, 52.02
18.863, 50.84
18.940, 48.41
19.063, 52.09
19.140, 50.74
19.263, 50.10
19.340, 49.03
19.463, 49.68
19.540, 49.03
19.663, 49.26
19.740, 48.03
19.863, 56.51
19.940, 47.86
20.063, 48.14
20.140, 48.93
20.263, 51.40
20.340, 47.83
20.463, 51.69
20.540, 47.03
20.663, 51.54
20.740, 52.91
20.863, 53.53
20.940, 50.81
21.063, 50.81
21.140, 46.86
21.263, 51.54
21.340, 50.92
21.463, 49.67
21.540, 46.84
21.663, 51.06
21.740, 52.40
21.863, 49.53
21.940, 52.41
22.063, 51.22
22.140, 52.27
22.263, 51.44
22.340, 54.97
22.463, 53.15
22.540, 52.10
22.663, 51.58
22.740, 52.06
22.863, 52.84
22.940, 53.30
23.063, 47.07
23.140, 49.71
23.263, 48.84
23.340, 51.22
23.463, 47.77
23.540, 53.54
23.663, 52.99
23.740, 52.03
23.863, 48.83
23.940, 49.24
24.063, 50.28
24.140, 50.38
24.263, 50.95
24.340, 53.01
24.463, 48.77
24.540, 48.42
24.663, 46.52
24.740, 47.37
24.863, 48.37
24.940, 48.71
25.063, 49.61
25.140, 48.24
25.263, 51.25
25.340, 54.14
25.463, 48.48
25.540, 48.13
25.663, 53.65
25.740, 56.13
25.863, 53.60
25.940, 53.58
26.063, 47.81
26.140, 47.54
26.263, 51.01
26.340, 50.65
26.463, 53.34
26.540, 50.52
26.663, 48.98
26.740, 52.66
26.863, 50.12
26.940, 53.60
27.063, 50.96
27.140, 49.69
27.263, 48.30
27.340, 50.44
27.463, 51.33
27.540, 52.36
27.663, 47.81
27.740, 54.22
27.863, 48.15
27.940, 49.14
28.063, 51.73
28.140, 48.20
28.263, 53.37
28.340, 52.36
28.463, 50.31
28.540, 53.22
28.663, 52.95
28.740, 48.23
28.863, 48.47
28.940, 50.76
29.063, 49.69
29.140, 54.54
29.263, 48.27
29.340, 53.07
29.463, 52.93
29.540, 48.65
29.663, 50.39
29.740, 51.18
29.863, 51.20
29.940, 49.78
30.063, 50.69
30.140, 52.12
30.263, 51.71
30.340, 50.00
30.463, 54.38
30.540, 48.20
30.663, 52.18
30.740, 49.77
30.863, 51.07
30.940, 52.74
31.063, 49.62
31.140, 49.04
31.263, 47.84
31.340, 55.22
31.463, 49.17
31.540, 55.82
31.663, 49.55
31.740, 53.35
31.863, 53.21
31.940, 50.91
32.063, 53.34
32.140, 50.59
32.263, 50.66
32.340, 49.27
32.463, 52.94
32.540, 53.50
32.663, 49.96
32.740, 51.62
32.863, 49.08
32.940, 52.27
33.063, 50.47
33.140, 51.95
33.263, 49.28
33.340, 54.69
33.463, 54.27
33.540, 48.35
33.663, 53.11
33.740, 51.62
33.863, 48.46
33.940, 53.24
34.063, 50.99
34.140, 52.19
34.263, 52.76
34.340, 48.52
34.463, 49.53
34.540, 53.04
34.663, 53.78
34.740, 53.81
34.863, 55.95
34.940, 50.16
35.063, 54.14
35.140, 54.56
35.263, 52.17
35.340, 51.19
35.463, 61.66
35.540, 53.55
35.663, 51.40
35.740, 49.16
35.863, 52.68
35.940, 54.09
36.063, 55.11
36.140, 54.11
36.263, 52.78
36.340, 52.52
36.463, 52.08
36.540, 55.35
36.663, 53.11
36.740, 57.06
36.863, 53.20
36.940, 51.73
37.063, 56.01
37.140, 50.67
37.263, 47.97
37.340, 50.32
37.463, 52.52
37.540, 48.56
37.663, 53.11
37.740, 54.01
37.863, 55.04
37.940, 49.22
38.063, 50.19
38.140, 49.85
38.263, 53.49
38.340, 55.10
38.463, 53.12
38.540, 50.69
38.663, 57.05
38.740, 49.44
38.863, 54.02
38.940, 54.51
39.063, 59.93
39.140, 55.08
39.263, 54.33
39.340, 56.17
39.463, 53.10
39.540, 51.78
39.663, 54.11
39.740, 54.09
39.863, 52.44
39.940, 54.32
40.063, 53.20
40.140, 51.51
40.263, 56.33
40.340, 51.74
40.463, 51.46
40.540, 51.17
40.663, 53.30
40.740, 53.03
40.863, 51.87
40.940, 55.60
41.063, 49.52
41.140, 53.22
41.263, 51.24
41.340, 50.76
41.463, 52.20
41.540, 54.69
41.663, 52.54
41.740, 51.38
41.863, 50.08
41.940, 47.91
42.063, 54.10
42.140, 52.76
42.263, 51.96
42.340, 54.24
42.463, 49.89
42.540, 52.39
42.663, 54.21
42.740, 50.20
42.863, 49.27
42.940, 47.47
43.063, 49.56
43.140, 49.89
43.263, 50.73
43.340, 53.73
43.463, 55.67
43.540, 47.89
43.663, 49.07
43.740, 50.49
43.863, 51.55
43.940, 49.63
44.063, 52.66
44.140, 50.05
44.263, 54.81
44.340, 50.68
44.463, 54.58
44.540, 48.80
44.663, 55.37
44.740, 51.91
44.863, 50.59
44.940, 54.73
45.063, 50.18
45.140, 53.08
45.263, 49.98
45.340, 52.49
45.463, 52.07
45.540, 50.99
45.663, 54.89
45.740, 53.29
45.863, 51.60
45.940, 50.25
46.063, 53.07
46.140, 48.74
46.263, 53.92
46.340, 50.13
46.463, 52.09
46.540, 50.47
46.663, 55.23
46.740, 55.71
46.863, 50.47
46.940, 49.99
47.063, 52.11
47.140, 49.04
47.263, 51.18
47.340, 56.33
47.463, 50.44
47.540, 56.11
47.663, 50.51
47.740, 51.30
47.863, 53.88
47.940, 49.54
48.063, 51.52
48.140, 53.78
48.263, 53.18
48.340, 57.06
48.463, 52.78
48.540, 56.83
48.663, 49.72
48.740, 55.53
48.863, 49.13
48.940, 53.30
49.063, 56.21
49.140, 51.11
49.263, 50.10
49.340, 59.36
49.463, 53.88
49.540, 62.76
49.663, 53.81
49.740, 55.32
49.863, 52.04
49.940, 50.05
50.063, 53.97
50.140, 60.97
50.263, 53.92
50.340, 54.52
50.463, 52.88
50.540, 49.99
50.663, 51.98
50.740, 54.19
50.863, 50.51
50.940, 58.69
51.063, 51.28
51.140, 53.50
51.263, 54.96
51.340, 52.17
51.463, 50.42
51.540, 56.04
51.663, 56.06
51.740, 57.25
51.863, 52.99
51.940, 56.24
52.063, 51.95
52.140, 49.18
52.263, 55.61
52.340, 58.30
52.463, 55.39
52.540, 57.77
52.663, 54.35
52.740, 55.18
52.863, 51.09
52.940, 59.35
53.063, 55.03
53.140, 50.89
53.263, 54.62
53.340, 55.86
53.463, 50.66
53.540, 56.71
53.663, 50.35
53.740, 60.25
53.863, 53.36
53.940, 50.83
54.063, 52.48
54.140, 57.38
54.263, 53.66
54.340, 54.46
54.463, 57.74
54.540, 54.61
54.663, 56.56
54.740, 52.19
54.863, 54.40
54.940, 49.54
55.063, 48.61
55.140, 56.77
55.263, 53.47
55.340, 50.11
55.463, 57.40
55.540, 52.28
55.663, 57.85
55.740, 51.83
55.863, 53.30
55.940, 49.92
56.063, 56.94
56.140, 52.47
56.263, 54.94
56.340, 57.43
56.463, 53.31
56.540, 51.25
56.663, 57.46
56.740, 54.23
56.863, 55.96
56.940, 56.22
57.063, 54.23
57.140, 56.38
57.263, 51.14
57.340, 56.67
57.463, 56.56
57.540, 55.21
57.663, 54.92
57.740, 51.47
57.863, 58.25
57.940, 51.78
58.063, 54.78
58.140, 52.93
58.263, 56.39
58.340, 51.37
58.463, 53.54
58.540, 55.11
58.663, 50.85
58.740, 49.86
58.863, 54.53
58.940, 52.95
59.063, 53.88
59.140, 50.60
59.263, 56.82
59.340, 54.58
59.463, 55.73
59.540, 53.18
59.663, 53.83
59.740, 52.96
59.863, 51.24
59.940, 51.78
60.063, 54.21
60.140, 55.52
60.263, 54.24
60.340, 52.64
60.463, 57.18
60.540, 55.57
60.663, 56.60
60.740, 58.37
60.863, 55.61
60.940, 54.26
61.063, 55.28
61.140, 54.84
61.263, 53.24
61.340, 52.68
61.463, 51.44
61.540, 49.55
61.663, 57.28
61.740, 53.20
61.863, 56.57
61.940, 56.36
62.063, 53.03
62.140, 57.61
62.263, 54.33
62.340, 56.83
62.463, 50.20
62.540, 56.49
62.663, 54.29
62.740, 54.82
62.863, 50.48
62.940, 52.52
63.063, 50.23
63.140, 54.10
63.263, 51.34
63.340, 54.35
63.463, 52.95
63.540, 55.39
63.663, 52.05
63.740, 49.08
63.863, 52.22
63.940, 50.37
64.063, 52.55
64.140, 55.68
64.263, 57.87
64.340, 55.74
64.463, 56.55
64.540, 56.52
64.663, 56.50
64.740, 49.27
64.863, 55.17
64.940, 51.53
65.063, 56.33
65.140, 56.45
65.263, 53.15
65.340, 52.42
65.463, 52.28
65.540, 55.50
65.663, 55.35
65.740, 50.83
65.863, 56.83
65.940, 53.97
66.063, 50.95
66.140, 55.07
66.263, 53.53
66.340, 53.17
66.463, 53.27
66.540, 56.97
66.663, 51.93
66.740, 57.40
66.863, 55.01
66.940, 54.14
67.063, 53.47
67.140, 60.13
67.263, 57.68
67.340, 52.12
67.463, 55.08
67.540, 52.05
67.663, 51.30
67.740, 56.18
67.863, 56.49
67.940, 51.91
68.063, 50.07
68.140, 53.05
68.263, 54.25
68.340, 55.25
68.463, 56.63
68.540, 55.00
68.663, 51.90
68.740, 58.37
68.863, 52.77
68.940, 51.35
69.063, 54.84
69.140, 54.61
69.263, 54.41
69.340, 54.36
69.463, 53.54
69.540, 56.04
69.663, 55.37
69.740, 52.62
69.863, 54.10
69.940, 53.98
70.063, 58.61
70.140, 56.01
70.263, 58.37
70.340, 58.16
70.463, 53.55
70.540, 58.98
70.663, 55.81
70.740, 56.70
70.863, 56.08
70.940, 54.36
71.063, 54.93
71.140, 57.05
71.263, 58.35
71.340, 59.35
71.463, 57.08
71.540, 54.58
71.663, 57.03
71.740, 54.35
71.863, 56.21
71.940, 59.25
72.063, 56.62
72.140, 55.31
72.263, 57.12
72.340, 56.46
72.463, 57.49
72.540, 54.27
72.663, 56.35
72.740, 53.86
72.863, 56.93
72.940, 56.04
73.063, 57.12
73.140, 57.15
73.263, 56.50
73.340, 58.14
73.463, 56.81
73.540, 53.02
73.663, 57.24
73.740, 59.90
73.863, 62.31
73.940, 57.56
74.063, 60.86
74.140, 56.49
74.263, 59.41
74.340, 54.77
74.463, 52.79
74.540, 52.57
74.663, 55.70
74.740, 60.42
74.863, 54.99
74.940, 51.28
75.063, 59.96
75.140, 60.45
75.263, 64.03
75.340, 59.11
75.463, 55.41
75.540, 58.92
75.663, 57.35
75.740, 52.45
75.863, 57.29
75.940, 55.44
76.063, 56.19
76.140, 55.70
76.263, 53.60
76.340, 53.05
76.463, 58.15
76.540, 52.93
76.663, 53.41
76.740, 54.95
76.863, 54.60
76.940, 53.16
77.063, 64.48
77.140, 53.16
77.263, 51.29
77.340, 56.03
77.463, 53.35
77.540, 55.75
77.663, 61.24
77.740, 61.03
77.863, 55.50
77.940, 57.32
78.063, 56.98
78.140, 51.48
78.263, 53.92
78.340, 54.92
78.463, 55.83
78.540, 57.57
78.663, 57.84
78.740, 56.19
78.863, 60.08
78.940, 52.92
79.063, 54.91
79.140, 53.22
79.263, 55.61
79.340, 57.13
79.463, 54.36
79.540, 55.51
79.663, 58.03
79.740, 53.42
79.863, 54.97
79.940, 57.67
80.063, 55.18
80.140, 55.96
80.263, 55.86
80.340, 53.16
80.463, 52.75
80.540, 54.28
80.663, 58.43
80.740, 60.21
80.863, 54.12
80.940, 56.77
81.063, 55.26
81.140, 57.85
81.263, 55.37
81.340, 56.29
81.463, 55.12
81.540, 58.85
81.663, 52.19
81.740, 59.82
81.863, 53.33
81.940, 55.62
82.063, 54.44
82.140, 59.20
82.263, 60.24
82.340, 57.45
82.463, 57.68
82.540, 52.03
82.663, 54.35
82.740, 59.78
82.863, 56.64
82.940, 59.60
83.063, 54.18
83.140, 58.06
83.263, 52.65
83.340, 59.06
83.463, 56.20
83.540, 56.63
83.663, 53.53
83.740, 60.55
83.863, 53.33
83.940, 59.77
84.063, 59.82
84.140, 58.14
84.263, 61.86
84.340, 53.73
84.463, 61.13
84.540, 53.45
84.663, 56.12
84.740, 59.98
84.863, 57.84
84.940, 60.91
85.063, 60.22
85.140, 52.71
85.263, 57.83
85.340, 55.24
85.463, 60.27
85.540, 53.77
85.663, 53.69
85.740, 57.59
85.863, 56.20
85.940, 57.50
86.063, 60.50
86.140, 54.07
86.263, 57.72
86.340, 56.76
86.463, 54.68
86.540, 60.93
86.663, 56.78
86.740, 57.36
86.863, 55.74
86.940, 61.88
87.063, 60.35
87.140, 55.81
87.263, 56.29
87.340, 59.49
87.463, 57.24
87.540, 55.23
87.663, 58.30
87.740, 59.56
87.863, 61.00
87.940, 54.98
88.063, 57.72
88.140, 58.98
88.263, 59.50
88.340, 55.36
88.463, 57.07
88.540, 58.07
88.663, 56.93
88.740, 57.98
88.863, 55.91
88.940, 55.51
89.063, 57.35
89.140, 56.35
89.263, 56.31
89.340, 56.05
89.463, 57.83
89.540, 60.68
89.663, 55.71
89.740, 63.78
89.863, 53.45
89.940, 59.01
90.063, 60.53
90.140, 55.12
90.263, 59.57
90.340, 58.93
90.463, 59.29
90.540, 54.21
90.663, 54.82
90.740, 59.42
90.863, 55.94
90.940, 55.88
91.063, 57.30
91.140, 56.92
91.263, 56.08
91.340, 66.43
91.463, 60.33
91.540, 58.40
91.663, 57.00
91.740, 52.36
91.863, 54.33
91.940, 57.98
92.063, 57.21
92.140, 62.36
92.263, 56.66
92.340, 57.57
92.463, 59.46
92.540, 63.68
92.663, 54.76
92.740, 63.71
92.863, 60.80
92.940, 64.62
93.063, 57.85
93.140, 58.85
93.263, 55.91
93.340, 67.90
93.463, 61.23
93.540, 64.76
93.663, 60.10
93.740, 58.89
93.863, 57.75
93.940, 61.98
94.063, 60.21
94.140, 60.82
94.263, 59.01
94.340, 64.35
94.463, 58.73
94.540, 52.02
94.663, 61.21
94.740, 66.52
94.863, 55.78
94.940, 58.10
95.063, 57.89
95.140, 65.44
95.263, 56.94
95.340, 55.58
95.463, 57.63
95.540, 64.96
95.663, 56.67
95.740, 65.75
95.863, 61.78
95.940, 59.33
96.063, 56.64
96.140, 59.41
96.263, 57.99
96.340, 58.02
96.463, 59.31
96.540, 59.16
96.663, 61.03
96.740, 56.31
96.863, 61.22
96.940, 58.83
97.063, 61.47
97.140, 64.24
97.263, 61.55
97.340, 56.72
97.463, 57.53
97.540, 59.01
97.663, 60.99
97.740, 54.08
97.863, 62.88
97.940, 63.28
98.063, 57.61
98.140, 59.38
98.263, 61.94
98.340, 59.07
98.463, 61.36
98.540, 55.96
98.663, 60.57
98.740, 59.91
98.863, 60.41
98.940, 57.06
99.063, 61.49
99.140, 56.37
99.263, 60.37
99.340, 57.23
99.463, 62.76
99.540, 60.17
99.663, 56.35
99.740, 61.75
99.863, 58.61
99.940, 59.39
100.063, 61.43
100.140, 61.37
100.263, 59.57
100.340, 61.25
100.463, 58.73
100.540, 62.15
100.663, 61.07
100.740, 54.50
100.863, 61.45
100.940, 58.66
101.063, 60.34
101.140, 61.16
101.263, 59.23
101.340, 61.50
101.463, 63.02
101.540, 59.89
101.663, 57.93
101.740, 61.18
101.863, 59.05
101.940, 58.02
102.063, 60.52
102.140, 61.74
102.263, 60.10
102.340, 62.66
102.463, 63.32
102.540, 61.79
102.663, 63.35
102.740, 63.83
102.863, 60.66
102.940, 60.30
103.063, 59.89
103.140, 60.64
103.263, 56.55
103.340, 62.04
103.463, 56.32
103.540, 58.90
103.663, 59.87
103.740, 64.16
103.863, 63.77
103.940, 63.57
104.063, 57.22
104.140, 58.55
104.263, 55.88
104.340, 56.60
104.463, 63.77
104.540, 57.73
104.663, 59.75
104.740, 58.36
104.863, 61.57
104.940, 63.98
105.063, 60.87
105.140, 58.33
105.263, 63.13
105.340, 58.76
105.463, 67.70
105.540, 58.74
105.663, 57.41
105.740, 64.51
105.863, 65.06
105.940, 58.85
106.063, 63.80
106.140, 64.33
106.263, 61.60
106.340, 59.97
106.463, 57.59
106.540, 63.06
106.663, 59.70
106.740, 58.72
106.863, 60.23
106.940, 61.18
107.063, 64.96
107.140, 57.55
107.263, 60.49
107.340, 57.36
107.463, 63.36
107.540, 56.84
107.663, 62.60
107.740, 57.08
107.863, 58.31
107.940, 60.15
108.063, 58.91
108.140, 59.42
108.263, 61.40
108.340, 63.89
108.463, 60.46
108.540, 58.66
108.663, 64.29
108.740, 58.56
108.863, 57.33
108.940, 61.43
109.063, 59.07
109.140, 61.14
109.263, 59.45
109.340, 61.02
109.463, 56.59
109.540, 58.02
109.663, 58.82
109.740, 55.12
109.863, 56.85
109.940, 62.18
110.063, 60.73
110.140, 60.48
110.263, 65.00
110.340, 59.36
110.463, 63.08
110.540, 59.28
110.663, 65.06
110.740, 63.15
110.863, 58.67
110.940, 55.79
111.063, 60.47
111.140, 59.23
111.263, 63.07
111.340, 59.28
111.463, 61.98
111.540, 58.49
111.663, 58.52
111.740, 64.26
111.863, 56.59
111.940, 57.74
112.063, 59.88
112.140, 65.48
112.263, 59.96
112.340, 57.25
112.463, 60.50
112.540, 54.37
112.663, 60.39
112.740, 61.08
112.863, 61.31
112.940, 59.87
113.063, 61.74
113.140, 63.45
113.263, 60.19
113.340, 59.85
113.463, 58.13
113.540, 58.52
113.663, 62.30
113.740, 59.58
113.863, 66.35
113.940, 62.88
114.063, 64.22
114.140, 60.28
114.263, 56.12
114.340, 63.44
114.463, 59.10
114.540, 62.22
114.663, 61.20
114.740, 60.11
114.863, 60.22
114.940, 56.18
115.063, 61.09
115.140, 61.27
115.263, 62.69
115.340, 67.08
115.463, 57.95
115.540, 57.49
115.663, 62.40
115.740, 60.17
115.863, 62.77
115.940, 71.02
116.063, 60.62
116.140, 62.53
116.263, 62.00
116.340, 61.18
116.463, 60.17
116.540, 61.38
116.663, 57.14
116.740, 58.75
116.863, 59.93
116.940, 61.97
117.063, 60.12
117.140, 62.54
117.263, 63.61
117.340, 65.89
117.463, 59.33
117.540, 59.33
117.663, 61.82
117.740, 62.72
117.863, 63.34
117.940, 68.82
118.063, 62.16
118.140, 61.92
118.263, 65.69
118.340, 68.09
118.463, 60.15
118.540, 58.65
118.663, 62.73
118.740, 68.79
118.863, 66.99
118.940, 57.14
119.063, 59.52
119.140, 62.82
119.263, 59.44
119.340, 62.81
119.463, 60.36
119.540, 62.05
119.663, 60.67
119.740, 63.23
119.863, 63.92
119.940, 65.28
120.063, 68.06
120.140, 63.14
120.263, 62.60
120.340, 66.34
120.463, 60.60
120.540, 57.14
120.663, 67.76
120.740, 60.49
120.863, 63.09
120.940, 60.36
121.063, 61.25
121.140, 61.97
121.263, 61.63
121.340, 63.54
121.463, 62.58
121.540, 61.86
121.663, 64.95
121.740, 63.97
121.863, 61.46
121.940, 66.70
122.063, 64.87
122.140, 61.04
122.263, 63.16
122.340, 64.02
122.463, 62.01
122.540, 59.51
122.663, 68.65
122.740, 60.44
122.863, 64.88
122.940, 64.50
123.063, 64.81
123.140, 61.58
123.263, 68.38
123.340, 56.78
123.463, 61.93
123.540, 60.20
123.663, 60.02
123.740, 66.02
123.863, 57.80
123.940, 62.46
124.063, 61.12
124.140, 59.28
124.263, 66.56
124.340, 59.70
124.463, 61.73
124.540, 58.32
124.663, 61.42
124.740, 58.23
124.863, 65.87
124.940, 59.46
125.063, 65.66
125.140, 58.44
125.263, 69.33
125.340, 57.44
125.463, 66.03
125.540, 62.72
125.663, 63.03
125.740, 59.45
125.863, 59.12
125.940, 62.21
126.063, 63.43
126.140, 62.48
126.263, 61.57
126.340, 61.93
126.463, 66.41
126.540, 61.47
126.663, 62.25
126.740, 65.74
126.863, 62.68
126.940, 66.35
127.063, 61.24
127.140, 60.26
127.263, 59.60
127.340, 61.07
127.463, 61.30
127.540, 60.19
127.663, 64.13
127.740, 61.53
127.863, 62.38
127.940, 60.98
128.063, 59.09
128.140, 60.75
128.263, 60.05
128.340, 59.14
128.463, 60.19
128.540, 62.13
128.663, 63.20
128.740, 58.83
128.863, 60.77
128.940, 58.92
129.063, 56.95
129.140, 66.08
129.263, 60.29
129.340, 62.81
129.463, 66.37
129.540, 57.26
129.663, 63.42
129.740, 63.43
129.863, 61.93
129.940, 59.97
130.063, 62.94
130.140, 66.61
130.263, 61.59
130.340, 58.74
130.463, 61.80
130.540, 67.22
130.663, 63.22
130.740, 64.54
130.863, 63.67
130.940, 65.52
131.063, 60.06
131.140, 62.92
131.263, 61.33
131.340, 61.13
131.463, 62.28
131.540, 61.62
131.663, 57.76
131.740, 61.70
131.863, 62.13
131.940, 61.53
132.063, 63.32
132.140, 62.24
132.263, 55.58
132.340, 61.33
132.463, 59.30
132.540, 63.01
132.663, 61.74
132.740, 60.09
132.863, 59.45
132.940, 56.13
133.063, 57.62
133.140, 59.37
133.263, 64.25
133.340, 63.69
133.463, 61.58
133.540, 60.21
133.663, 61.22
133.740, 61.11
133.863, 61.78
133.940, 58.29
134.063, 62.15
134.140, 66.46
134.263, 60.13
134.340, 58.15
134.463, 59.17
134.540, 58.89
134.663, 61.80
134.740, 67.25
134.863, 68.59
134.940, 66.57
135.063, 60.02
135.140, 63.21
135.263, 59.92
135.340, 64.07
135.463, 62.94
135.540, 64.32
135.663, 63.21
135.740, 65.27
135.863, 63.33
135.940, 67.51
136.063, 63.02
136.140, 61.25
136.263, 60.93
136.340, 64.09
136.463, 60.80
136.540, 60.64
136.663, 58.69
136.740, 66.52
136.863, 64.76
136.940, 62.14
137.063, 62.04
137.140, 66.63
137.263, 61.00
137.340, 65.50
137.463, 59.67
137.540, 63.80
137.663, 65.99
137.740, 62.82
137.863, 58.96
137.940, 62.11
138.063, 58.60
138.140, 62.32
138.263, 61.86
138.340, 61.89
138.463, 65.01
138.540, 64.92
138.663, 63.18
138.740, 57.40
138.863, 63.62
138.940, 65.23
139.063, 61.26
139.140, 68.44
139.263, 62.13
139.340, 73.69
139.463, 65.27
139.540, 60.95
139.663, 62.55
139.740, 69.79
139.863, 64.52
139.940, 62.14
140.063, 64.26
140.140, 73.46
140.263, 67.02
140.340, 71.48
140.463, 62.47
140.540, 63.66
140.663, 62.16
140.740, 65.96
140.863, 66.15
140.940, 65.31
141.063, 60.30
141.140, 67.58
141.263, 59.53
141.340, 69.26
141.463, 60.74
141.540, 70.66
141.663, 66.03
141.740, 63.55
141.863, 63.62
141.940, 64.57
142.063, 61.50
142.140, 69.07
142.263, 61.39
142.340, 66.99
142.463, 65.80
142.540, 66.40
142.663, 61.75
142.740, 73.18
142.863, 61.39
142.940, 60.84
143.063, 68.58
143.140, 57.64
143.263, 61.18
143.340, 66.39
143.463, 61.85
143.540, 59.99
143.663, 65.70
143.740, 64.27
143.863, 66.51
143.940, 59.84
144.063, 61.92
144.140, 68.14
144.263, 66.78
144.340, 63.88
144.463, 64.09
144.540, 65.08
144.663, 62.96
144.740, 65.18
144.863, 66.78
144.940, 57.23
145.063, 59.41
145.140, 60.73
145.263, 63.11
145.340, 60.26
145.463, 65.14
145.540, 68.58
145.663, 60.68
145.740, 61.79
145.863, 65.15
145.940, 64.71
146.063, 68.09
146.140, 64.59
146.263, 64.10
146.340, 68.34
146.463, 64.35
146.540, 62.57
146.663, 60.93
146.740, 64.54
146.863, 60.59
146.940, 63.67
147.063, 67.42
147.140, 62.58
147.263, 60.42
147.340, 59.77
147.463, 66.51
147.540, 61.59
147.663, 65.79
147.740, 60.60
147.863, 68.09
147.940, 63.47
148.063, 59.95
148.140, 62.31
148.263, 70.41
148.340, 65.75
148.463, 65.41
148.540, 61.99
148.663, 61.10
148.740, 61.94
148.863, 59.32
148.940, 62.28
149.063, 65.84
149.140, 64.17
149.263, 62.64
149.340, 63.72
149.463, 64.83
149.540, 67.32
149.663, 67.07
149.740, 65.37
149.863, 64.30
149.940, 68.13
150.063, 62.31
150.140, 60.60
150.263, 70.23
150.340, 60.29
150.463, 62.16
150.540, 60.39
150.663, 60.47
150.740, 62.66
150.863, 64.40
150.940, 65.96
151.063, 63.34
151.140, 62.31
151.263, 66.71
151.340, 62.22
151.463, 67.13
151.540, 63.84
151.663, 63.25
151.740, 60.33
151.863, 61.38
151.940, 63.34
152.063, 66.68
152.140, 66.74
152.263, 59.34
152.340, 62.57
152.463, 63.45
152.540, 62.36
152.663, 61.31
152.740, 65.13
152.863, 67.19
152.940, 60.74
153.063, 62.63
153.140, 66.04
153.263, 64.01
153.340, 66.00
153.463, 66.67
153.540, 63.96
153.663, 60.18
153.740, 66.46
153.863, 63.80
153.940, 68.40
154.063, 63.83
154.140, 68.40
154.263, 63.22
154.340, 60.43
154.463, 60.80
154.540, 62.35
154.663, 64.02
154.740, 62.71
154.863, 69.33
154.940, 66.24
155.063, 59.90
155.140, 63.37
155.263, 66.58
155.340, 64.49
155.463, 59.99
155.540, 70.72
155.663, 66.07
155.740, 65.04
155.863, 58.16
155.940, 66.30
156.063, 60.17
156.140, 70.06
156.263, 64.98
156.340, 65.13
156.463, 60.44
156.540, 69.50
156.663, 67.72
156.740, 62.56
156.863, 61.34
156.940, 67.60
157.063, 69.00
157.140, 60.35
157.263, 68.34
157.340, 58.37
157.463, 63.09
157.540, 66.55
157.663, 62.91
157.740, 62.38
157.863, 61.44
157.940, 62.13
158.063, 66.23
158.140, 64.10
158.263, 63.44
158.340, 65.78
158.463, 63.88
158.540, 64.73
158.663, 63.86
158.740, 66.25
158.863, 63.52
158.940, 66.21
159.063, 66.53
159.140, 64.94
159.263, 64.04
159.340, 65.40
159.463, 65.96
159.540, 67.39
159.663, 63.74
159.740, 66.65
159.863, 62.92
159.940, 68.86
160.063, 64.70
160.140, 65.82
160.263, 61.35
160.340, 66.59
160.463, 62.95
160.540, 62.85
160.663, 66.34
160.740, 61.35
160.863, 64.19
160.940, 64.55
161.063, 60.16
161.140, 66.20
161.263, 61.21
161.340, 69.69
161.463, 68.74
161.540, 63.03
161.663, 65.12
161.740, 64.12
161.863, 64.83
161.940, 59.28
162.063, 60.44
162.140, 66.84
162.263, 67.32
162.340, 60.53
162.463, 68.57
162.540, 63.03
162.663, 61.55
162.740, 61.82
162.863, 65.66
162.940, 64.17
163.063, 59.62
163.140, 65.80
163.263, 63.10
163.340, 70.26
163.463, 59.38
163.540, 67.08
163.663, 63.53
163.740, 66.47
163.863, 64.36
163.940, 70.05
164.063, 65.94
164.140, 63.17
164.263, 68.77
164.340, 61.50
164.463, 64.10
164.540, 68.07
164.663, 62.02
164.740, 68.98
164.863, 67.21
164.940, 67.24
165.063, 69.51
165.140, 64.83
165.263, 66.66
165.340, 68.93
165.463, 63.44
165.540, 63.21
165.663, 61.40
165.740, 63.89
165.863, 66.65
165.940, 67.56
166.063, 68.16
166.140, 69.02
166.263, 64.31
166.340, 64.68
166.463, 64.80
166.540, 60.40
166.663, 63.04
166.740, 65.26
166.863, 68.68
166.940, 70.73
167.063, 66.81
167.140, 61.18
167.263, 69.79
167.340, 62.63
167.463, 65.66
167.540, 67.05
167.663, 67.41
167.740, 68.33
167.863, 69.69
167.940, 59.95
168.063, 69.73
168.140, 67.70
168.263, 62.32
168.340, 61.72
168.463, 70.81
168.540, 65.42
168.663, 66.30
168.740, 66.18
168.863, 65.11
168.940, 67.74
169.063, 61.64
169.140, 62.34
169.263, 64.35
169.340, 66.41
169.463, 67.62
169.540, 71.34
169.663, 69.80
169.740, 61.56
169.863, 73.32
169.940, 65.44
170.063, 63.93
170.140, 68.69
170.263, 64.46
170.340, 65.20
170.463, 66.27
170.540, 61.67
170.663, 63.76
170.740, 67.46
170.863, 73.50
170.940, 59.19
171.063, 73.30
171.140, 67.40
171.263, 67.67
171.340, 60.21
171.463, 63.04
171.540, 65.10
171.663, 64.97
171.740, 65.60
171.863, 62.95
171.940, 58.85
172.063, 67.68
172.140, 62.06
172.263, 66.99
172.340, 74.29
172.463, 70.57
172.540, 61.83
172.663, 69.29
172.740, 69.45
172.863, 66.88
172.940, 61.86
173.063, 65.38
173.140, 65.13
173.263, 72.85
173.340, 62.57
173.463, 64.60
173.540, 63.06
173.663, 72.87
173.740, 61.38
173.863, 70.15
173.940, 66.19
174.063, 64.04
174.140, 63.79
174.263, 65.26
174.340, 64.41
174.463, 65.81
174.540, 68.24
174.663, 63.18
174.740, 68.09
174.863, 63.71
174.940, 68.02
175.063, 64.95
175.140, 66.04
175.263, 64.76
175.340, 58.47
175.463, 67.72
175.540, 66.58
175.663, 64.49
175.740, 65.35
175.863, 62.16
175.940, 67.83
176.063, 64.27
176.140, 62.83
176.263, 67.64
176.340, 68.21
176.463, 68.69
176.540, 60.53
176.663, 59.44
176.740, 69.13
176.863, 64.35
176.940, 64.12
177.063, 63.76
177.140, 65.17
177.263, 67.98
177.340, 62.02
177.463, 63.07
177.540, 62.47
177.663, 58.58
177.740, 63.76
177.863, 67.22
177.940, 62.96
178.063, 69.14
178.140, 65.59
178.263, 70.16
178.340, 65.24
178.463, 64.22
178.540, 66.92
178.663, 65.25
178.740, 60.80
178.863, 70.38
178.940, 65.80
179.063, 66.39
179.140, 61.95
179.263, 64.52
179.340, 61.06
179.463, 57.21
179.540, 62.97
179.663, 66.18
179.740, 58.45
179.863, 67.52
179.940, 66.18
180.063, 60.62
180.140, 70.94
180.263, 66.43
180.340, 62.49
180.463, 63.60
180.540, 64.82
180.663, 57.94
180.740, 66.58
180.863, 67.61
180.940, 67.25
181.063, 68.34
181.140, 65.65
181.263, 65.36
181.340, 61.94
181.463, 64.52
181.540, 70.61
181.663, 64.89
181.740, 60.55
181.863, 66.37
181.940, 64.48
182.063, 68.43
182.140, 69.18
182.263, 62.33
182.340, 58.35
182.463, 62.25
182.540, 66.13
182.663, 60.42
182.740, 62.18
182.863, 59.88
182.940, 62.03
183.063, 61.95
183.140, 64.06
183.263, 66.84
183.340, 57.03
183.463, 63.05
183.540, 66.69
183.663, 64.58
183.740, 66.35
183.863, 61.51
183.940, 61.73
184.063, 62.45
184.140, 67.01
184.263, 63.52
184.340, 62.91
184.463, 69.26
184.540, 60.38
184.663, 65.04
184.740, 63.21
184.863, 66.54
184.940, 63.69
185.063, 66.49
185.140, 62.83
185.263, 68.02
185.340, 61.41
185.463, 64.14
185.540, 68.43
185.663, 67.35
185.740, 64.00
185.863, 62.16
185.940, 69.71
186.063, 63.18
186.140, 67.60
186.263, 60.84
186.340, 67.68
186.463, 65.87
186.540, 62.55
186.663, 62.23
186.740, 65.32
186.863, 64.27
186.940, 60.43
187.063, 63.04
187.140, 70.13
187.263, 64.85
187.340, 65.85
187.463, 68.51
187.540, 60.93
187.663, 65.56
187.740, 57.51
187.863, 60.98
187.940, 61.68
188.063, 62.59
188.140, 61.53
188.263, 65.25
188.340, 61.28
188.463, 60.77
188.540, 66.75
188.663, 65.40
188.740, 60.86
188.863, 66.90
188.940, 59.46
189.063, 64.31
189.140, 66.26
189.263, 64.03
189.340, 63.43
189.463, 66.60
189.540, 64.60
189.663, 66.36
189.740, 61.84
189.863, 67.54
189.940, 64.39
190.063, 64.58
190.140, 68.56
190.263, 66.18
190.340, 67.85
190.463, 64.65
190.540, 68.63
190.663, 61.65
190.740, 69.56
190.863, 61.96
190.940, 64.96
191.063, 58.73
191.140, 72.11
191.263, 61.60
191.340, 67.61
191.463, 67.03
191.540, 71.07
191.663, 61.79
191.740, 65.66
191.863, 63.13
191.940, 72.83
192.063, 56.97
192.140, 72.44
192.263, 69.35
192.340, 60.79
192.463, 65.09
192.540, 60.06
192.663, 69.75
192.740, 60.34
192.863, 66.21
192.940, 69.27
193.063, 62.29
193.140, 64.36
193.263, 63.27
193.340, 67.25
193.463, 67.06
193.540, 63.27
193.663, 63.86
193.740, 66.60
193.863, 62.86
193.940, 64.72
194.063, 58.98
194.140, 72.28
194.263, 66.70
194.340, 65.11
194.463, 64.53
194.540, 69.12
194.663, 62.85
194.740, 59.33
194.863, 63.32
194.940, 67.12
195.063, 61.03
195.140, 65.20
195.263, 63.22
195.340, 65.18
195.463, 62.92
195.540, 66.83
195.663, 60.47
195.740, 60.84
195.863, 64.30
195.940, 64.91
196.063, 59.63
196.140, 69.47
196.263, 66.99
196.340, 67.75
196.463, 64.29
196.540, 61.77
196.663, 63.30
196.740, 64.95
196.863, 65.72
196.940, 62.93
197.063, 64.50
197.140, 61.39
197.263, 63.86
197.340, 65.67
197.463, 66.26
197.540, 65.09
197.663, 64.68
197.740, 64.46
197.863, 67.24
197.940, 65.89
198.063, 68.71
198.140, 62.72
198.263, 59.73
198.340, 66.14
198.463, 61.37
198.540, 62.16
198.663, 62.73
198.740, 57.69
198.863, 66.20
198.940, 59.01
199.063, 61.70
199.140, 61.76
199.263, 57.04
199.340, 65.95
199.463, 57.95
199.540, 64.81
199.663, 60.80
199.740, 62.97
199.863, 64.01
199.940, 62.70
200.063, 60.81
200.140, 59.98
200.263, 59.84
200.340, 63.63
200.463, 57.03
200.540, 61.73
200.663, 67.19
200.740, 55.70
200.863, 65.50
200.940, 68.53
201.063, 63.88
201.140, 63.14
201.263, 61.56
201.340, 67.07
201.463, 61.18
201.540, 62.14
201.663, 62.90
201.740, 65.04
201.863, 68.13
201.940, 63.22
202.063, 62.09
202.140, 63.38
202.263, 65.02
202.340, 60.77
202.463, 62.08
202.540, 64.61
202.663, 62.93
202.740, 57.31
202.863, 60.84
202.940, 63.45
203.063, 68.49
203.140, 55.77
203.263, 61.49
203.340, 57.09
203.463, 59.39
203.540, 60.85
203.663, 66.68
203.740, 58.54
203.863, 65.14
203.940, 53.39
204.063, 58.29
204.140, 61.19
204.263, 56.58
204.340, 61.51
204.463, 61.17
204.540, 68.10
204.663, 61.99
204.740, 61.44
204.863, 58.97
204.940, 64.41
205.063, 62.99
205.140, 62.57
205.263, 63.16
205.340, 58.78
205.463, 62.80
205.540, 57.78
205.663, 59.47
205.740, 65.29
205.863, 65.09
205.940, 62.04
206.063, 56.40
206.140, 57.81
206.263, 64.94
206.340, 62.76
206.463, 62.65
206.540, 67.20
206.663, 68.12
206.740, 66.71
206.863, 62.11
206.940, 61.64
207.063, 66.03
207.140, 61.11
207.263, 57.33
207.340, 55.25
207.463, 61.83
207.540, 62.21
207.663, 61.61
207.740, 61.91
207.863, 60.95
207.940, 66.35
208.063, 62.13
208.140, 59.82
208.263, 65.69
208.340, 62.68
208.463, 58.18
208.540, 62.74
208.663, 64.49
208.740, 66.74
208.863, 58.02
208.940, 62.80
209.063, 61.41
209.140, 64.25
209.263, 61.95
209.340, 68.34
209.463, 59.17
209.540, 58.90
209.663, 59.67
209.740, 61.51
209.863, 63.51
209.940, 62.13
210.063, 64.71
210.140, 61.78
210.263, 62.62
210.340, 61.00
210.463, 57.74
210.540, 62.17
210.663, 60.39
210.740, 58.87
210.863, 59.64
210.940, 68.12
211.063, 58.66
211.140, 61.67
211.263, 63.88
211.340, 64.85
211.463, 63.92
211.540, 55.60
211.663, 57.28
211.740, 57.28
211.863, 58.53
211.940, 57.47
212.063, 64.45
212.140, 61.23
212.263, 63.68
212.340, 59.84
212.463, 60.62
212.540, 61.11
212.663, 59.50
212.740, 65.82
212.863, 59.20
212.940, 62.60
213.063, 61.49
213.140, 60.21
213.263, 57.59
213.340, 56.21
213.463, 62.91
213.540, 62.66
213.663, 59.45
213.740, 61.38
213.863, 66.74
213.940, 68.06
214.063, 66.60
214.140, 60.45
214.263, 61.60
214.340, 60.93
214.463, 64.01
214.540, 59.36
214.663, 63.91
214.740, 63.84
214.863, 61.40
214.940, 62.49
215.063, 60.68
215.140, 60.80
215.263, 62.37
215.340, 60.99
215.463, 62.45
215.540, 62.49
215.663, 58.81
215.740, 62.11
215.863, 62.18
215.940, 61.03
216.063, 58.79
216.140, 60.27
216.263, 60.31
216.340, 64.97
216.463, 59.39
216.540, 62.11
216.663, 63.52
216.740, 64.26
216.863, 64.69
216.940, 63.31
217.063, 63.89
217.140, 56.15
217.263, 58.33
217.340, 65.01
217.463, 63.00
217.540, 62.52
217.663, 58.31
217.740, 62.41
217.863, 59.70
217.940, 60.10
218.063, 61.70
218.140, 62.66
218.263, 65.43
218.340, 62.58
218.463, 63.07
218.540, 65.51
218.663, 59.51
218.740, 65.15
218.863, 64.71
218.940, 55.88
219.063, 62.60
219.140, 63.05
219.263, 64.99
219.340, 64.05
219.463, 63.33
219.540, 58.12
219.663, 63.95
219.740, 59.01
219.863, 64.25
219.940, 62.37
220.063, 63.62
220.140, 58.33
220.263, 60.76
220.340, 60.72
220.463, 62.24
220.540, 69.75
220.663, 66.15
220.740, 59.97
220.863, 63.32
220.940, 65.63
221.063, 63.28
221.140, 57.73
221.263, 58.40
221.340, 59.70
221.463, 58.54
221.540, 57.02
221.663, 61.88
221.740, 62.75
221.863, 65.60
221.940, 58.10
222.063, 63.71
222.140, 64.70
222.263, 64.96
222.340, 68.28
222.463, 60.82
222.540, 65.80
222.663, 60.47
222.740, 65.69
222.863, 62.57
222.940, 65.35
223.063, 57.52
223.140, 61.12
223.263, 61.77
223.340, 65.99
223.463, 66.77
223.540, 58.04
223.663, 62.27
223.740, 59.54
223.863, 60.68
223.940, 63.71
224.063, 64.61
224.140, 66.00
224.263, 60.30
224.340, 68.00
224.463, 60.37
224.540, 59.40
224.663, 61.03
224.740, 60.71
224.863, 66.34
224.940, 64.29
225.063, 65.17
225.140, 62.55
225.263, 60.21
225.340, 63.46
225.463, 55.16
225.540, 57.80
225.663, 61.24
225.740, 62.84
225.863, 60.66
225.940, 62.17
226.063, 62.76
226.140, 61.80
226.263, 67.47
226.340, 68.17
226.463, 64.96
226.540, 66.58
226.663, 67.72
226.740, 65.46
226.863, 64.41
226.940, 63.20
227.063, 69.46
227.140, 61.26
227.263, 60.58
227.340, 59.99
227.463, 63.83
227.540, 60.13
227.663, 65.85
227.740, 59.47
227.863, 65.98
227.940, 67.85
228.063, 66.05
228.140, 58.45
228.263, 67.12
228.340, 65.10
228.463, 60.91
228.540, 63.81
228.663, 65.38
228.740, 64.61
228.863, 70.73
228.940, 64.53
229.063, 67.46
229.140, 60.43
229.263, 68.12
229.340, 60.13
229.463, 58.71
229.540, 61.68
229.663, 66.17
229.740, 58.70
229.863, 63.93
229.940, 60.41
230.063, 61.17
230.140, 64.25
230.263, 67.23
230.340, 66.03
230.463, 62.89
230.540, 58.25
230.663, 62.07
230.740, 67.79
230.863, 68.92
230.940, 58.39
231.063, 64.68
231.140, 62.70
231.263, 60.96
231.340, 62.22
231.463, 63.06
231.540, 66.85
231.663, 64.84
231.740, 61.44
231.863, 67.87
231.940, 60.41
232.063, 64.01
232.140, 60.02
232.263, 66.77
232.340, 58.40
232.463, 62.58
232.540, 65.55
232.663, 64.17
232.740, 58.06
232.863, 59.99
232.940, 63.83
233.063, 69.50
233.140, 62.58
233.263, 57.08
233.340, 65.33
233.463, 59.68
233.540, 63.63
233.663, 60.78
233.740, 61.72
233.863, 59.29
233.940, 64.59
234.063, 65.37
234.140, 60.32
234.263, 66.14
234.340, 65.22
234.463, 63.05
234.540, 62.22
234.663, 59.62
234.740, 64.65
234.863, 60.49
234.940, 63.58
235.063, 62.66
235.140, 62.82
235.263, 61.19
235.340, 60.32
235.463, 57.66
235.540, 60.94
235.663, 65.29
235.740, 61.45
235.863, 65.18
235.940, 64.42
236.063, 62.01
236.140, 66.10
236.263, 61.02
236.340, 65.62
236.463, 65.88
236.540, 60.63
236.663, 62.08
236.740, 66.22
236.863, 60.85
236.940, 59.07
237.063, 62.06
237.140, 58.69
237.263, 63.39
237.340, 60.67
237.463, 62.00
237.540, 63.87
237.663, 62.93
237.740, 67.16
237.863, 61.03
237.940, 63.86
238.063, 59.98
238.140, 59.13
238.263, 66.28
238.340, 63.23
238.463, 63.23
238.540, 59.36
238.663, 65.58
238.740, 64.13
238.863, 62.24
238.940, 70.61
239.063, 67.94
239.140, 62.44
239.263, 63.25
239.340, 65.08
239.463, 61.86
239.540, 65.45
239.663, 61.27
239.740, 70.26
239.863, 61.21
239.940, 68.01
240.063, 66.48
240.140, 66.04
240.263, 56.62
240.340, 63.24
240.463, 62.86
240.540, 65.00
240.663, 64.41
240.740, 54.72
240.863, 61.19
240.940, 63.48
241.063, 63.94
241.140, 65.28
241.263, 57.91
241.340, 65.16
241.463, 57.34
241.540, 59.88
241.663, 67.24
241.740, 67.86
241.863, 68.19
241.940, 67.27
242.063, 66.83
242.140, 67.91
242.263, 64.15
242.340, 59.21
242.463, 62.39
242.540, 72.24
242.663, 62.22
242.740, 63.90
242.863, 61.34
242.940, 68.47
243.063, 64.62
243.140, 66.65
243.263, 61.98
243.340, 57.88
243.463, 60.65
243.540, 65.08
243.663, 64.47
243.740, 68.39
243.863, 64.21
243.940, 62.59
244.063, 58.05
244.140, 65.99
244.263, 62.88
244.340, 60.23
244.463, 57.30
244.540, 61.92
244.663, 62.86
244.740, 63.40
244.863, 66.00
244.940, 59.75
245.063, 61.71
245.140, 62.13
245.263, 65.80
245.340, 63.29
245.463, 62.35
245.540, 60.51
245.663, 62.92
245.740, 65.60
245.863, 61.91
245.940, 64.12
246.063, 64.55
246.140, 61.98
246.263, 58.89
246.340, 62.96
246.463, 64.39
246.540, 61.98
246.663, 61.40
246.740, 65.42
246.863, 65.34
246.940, 64.35
247.063, 61.70
247.140, 62.07
247.263, 60.66
247.340, 69.21
247.463, 62.85
247.540, 64.32
247.663, 63.80
247.740, 65.45
247.863, 58.54
247.940, 61.96
248.063, 59.82
248.140, 65.32
248.263, 63.12
248.340, 60.75
248.463, 63.16
248.540, 62.23
248.663, 57.34
248.740, 60.20
248.863, 63.04
248.940, 59.91
249.063, 67.24
249.140, 59.97
249.263, 66.61
249.340, 61.34
249.463, 59.13
249.540, 60.61
249.663, 61.61
249.740, 66.54
249.863, 61.33
249.940, 60.08
250.063, 65.25
250.140, 60.56
250.263, 66.27
250.340, 60.93
250.463, 57.17
250.540, 60.38
250.663, 61.92
250.740, 62.50
250.863, 63.68
250.940, 60.18
251.063, 64.56
251.140, 61.02
251.263, 63.89
251.340, 62.50
251.463, 59.98
251.540, 60.94
251.663, 61.40
251.740, 64.36
251.863, 61.58
251.940, 67.89
252.063, 64.30
252.140, 68.88
252.263, 59.86
252.340, 59.83
252.463, 66.20
252.540, 66.77
252.663, 66.24
252.740, 62.92
252.863, 62.91
252.940, 68.23
253.063, 65.82
253.140, 67.42
253.263, 58.50
253.340, 57.34
253.463, 62.16
253.540, 66.35
253.663, 63.88
253.740, 63.14
253.863, 59.40
253.940, 66.74
254.063, 61.22
254.140, 68.11
254.263, 64.69
254.340, 69.99
254.463, 64.72
254.540, 63.46
254.663, 64.75
254.740, 68.85
254.863, 59.00
254.940, 61.06
255.063, 63.49
255.140, 57.82
255.263, 65.73
255.340, 60.54
255.463, 64.60
255.540, 64.73
255.663, 63.37
255.740, 59.19
255.863, 65.92
255.940, 61.73
256.063, 61.35
256.140, 58.99
256.263, 62.21
256.340, 68.69
256.463, 67.13
256.540, 68.76
256.663, 60.92
256.740, 58.57
256.863, 68.18
256.940, 66.28
257.063, 69.03
257.140, 68.57
257.263, 63.71
257.340, 60.75
257.463, 65.04
257.540, 61.18
257.663, 67.21
257.740, 66.96
257.863, 67.83
257.940, 58.37
258.063, 67.13
258.140, 60.11
258.263, 63.26
258.340, 67.15
258.463, 63.31
258.540, 61.77
258.663, 62.51
258.740, 65.55
258.863, 65.56
258.940, 71.39
259.063, 62.47
259.140, 66.31
259.263, 63.15
259.340, 61.05
259.463, 60.81
259.540, 59.41
259.663, 61.09
259.740, 67.85
259.863, 66.64
259.940, 64.79
260.063, 60.81
260.140, 66.69
260.263, 69.57
260.340, 63.69
260.463, 60.89
260.540, 70.78
260.663, 63.23
260.740, 64.24
260.863, 65.35
260.940, 62.66
261.063, 73.31
261.140, 64.32
261.263, 67.00
261.340, 68.12
261.463, 66.41
261.540, 63.28
261.663, 63.65
261.740, 65.40
261.863, 64.89
261.940, 68.77
262.063, 61.57
262.140, 60.76
262.263, 65.78
262.340, 66.29
262.463, 69.55
262.540, 64.06
262.663, 64.82
262.740, 61.18
262.863, 59.88
262.940, 62.04
263.063, 66.81
263.140, 60.78
263.263, 63.24
263.340, 60.53
263.463, 62.95
263.540, 64.28
263.663, 71.62
263.740, 67.39
263.863, 68.31
263.940, 59.95
264.063, 61.86
264.140, 63.88
264.263, 66.74
264.340, 64.18
264.463, 67.66
264.540, 62.23
264.663, 61.49
264.740, 62.01
264.863, 64.79
264.940, 65.93
265.063, 67.47
265.140, 64.92
265.263, 58.59
265.340, 65.05
265.463, 63.00
265.540, 63.27
265.663, 68.17
265.740, 61.34
265.863, 60.53
265.940, 66.66
266.063, 69.42
266.140, 64.70
266.263, 67.53
266.340, 63.19
266.463, 65.23
266.540, 65.60
266.663, 65.31
266.740, 68.61
266.863, 64.89
266.940, 67.25
267.063, 64.99
267.140, 67.48
267.263, 59.84
267.340, 68.01
267.463, 67.41
267.540, 62.71
267.663, 66.16
267.740, 60.57
267.863, 63.26
267.940, 68.54
268.063, 66.64
268.140, 68.18
268.263, 62.13
268.340, 68.31
268.463, 66.45
268.540, 61.69
268.663, 65.32
268.740, 64.10
268.863, 62.33
268.940, 65.86
269.063, 67.34
269.140, 66.45
269.263, 65.63
269.340, 63.05
269.463, 66.42
269.540, 68.96
269.663, 68.54
269.740, 64.64
269.863, 62.71
269.940, 66.59
270.063, 63.34
270.140, 67.01
270.263, 61.48
270.340, 61.20
270.463, 65.30
270.540, 67.94
270.663, 62.06
270.740, 62.88
270.863, 62.67
270.940, 68.57
271.063, 63.70
271.140, 63.63
271.263, 60.53
271.340, 68.99
271.463, 66.22
271.540, 64.31
271.663, 67.98
271.740, 63.06
271.863, 63.61
271.940, 70.06
272.063, 70.93
272.140, 66.03
272.263, 66.38
272.340, 65.38
272.463, 69.72
272.540, 60.88
272.663, 70.67
272.740, 62.53
272.863, 66.52
272.940, 65.82
273.063, 64.61
273.140, 75.95
273.263, 72.51
273.340, 66.53
273.463, 65.77
273.540, 68.06
273.663, 69.81
273.740, 64.37
273.863, 72.32
273.940, 64.26
274.063, 68.05
274.140, 65.91
274.263, 60.48
274.340, 71.94
274.463, 69.90
274.540, 64.83
274.663, 66.63
274.740, 63.15
274.863, 63.01
274.940, 70.64
275.063, 61.80
275.140, 77.42
275.263, 65.21
275.340, 71.49
275.463, 65.13
275.540, 69.06
275.663, 65.52
275.740, 69.43
275.863, 65.79
275.940, 62.67
276.063, 62.59
276.140, 65.40
276.263, 63.43
276.340, 66.83
276.463, 69.84
276.540, 67.85
276.663, 65.36
276.740, 66.97
276.863, 67.29
276.940, 61.07
277.063, 66.00
277.140, 64.59
277.263, 67.59
277.340, 67.86
277.463, 64.93
277.540, 62.18
277.663, 64.72
277.740, 63.89
277.863, 62.59
277.940, 62.67
278.063, 69.92
